timestamps,TP9,AF7,AF8,TP10,Right AUX
1718680471.196,166.992,-268.066,-269.531,612.793,0.000
1718680471.200,197.754,-334.473,-249.023,624.512,0.000
1718680471.204,-236.328,-433.105,-360.352,-315.918,0.000
1718680471.208,-618.164,-723.633,-465.820,-1000.000,0.000
1718680471.212,-439.453,-940.918,-473.145,-570.312,0.000
1718680471.216,26.367,-883.301,-367.676,451.172,0.000
1718680471.220,103.516,-569.824,-239.258,569.336,0.000
1718680471.224,-245.117,-524.414,-331.543,-241.699,0.000
1718680471.227,-633.789,-944.824,-613.770,-963.867,0.000
1718680471.231,-542.480,-979.492,-561.523,-710.449,0.000
1718680471.235,-78.613,-476.562,-275.391,285.645,0.000
1718680471.239,134.277,-183.594,-226.074,604.492,0.000
1718680471.243,0.000,-558.105,-442.871,-70.801,0.000
1718680471.247,0.000,-721.680,-496.094,-914.062,0.000
1718680471.251,0.000,-586.426,-415.039,-767.090,0.000
1718680471.255,0.000,-557.617,-375.000,271.484,0.000
1718680471.259,0.000,-351.562,-298.828,720.215,0.000
1718680471.263,0.000,-393.066,-371.094,90.332,0.000
1718680471.267,0.000,-573.242,-469.238,-848.633,0.000
1718680471.270,0.000,-467.773,-443.359,-771.484,0.000
1718680471.274,0.000,-813.965,-521.484,256.348,0.000
1718680471.278,0.000,-217.773,-152.832,793.945,0.000
1718680471.282,0.000,348.633,0.977,298.828,0.000
1718680471.286,0.000,-419.922,-462.402,-715.820,0.000
1718680471.290,-133.301,-604.980,-501.953,-822.754,0.000
1718680471.294,-601.562,-13.184,-233.887,122.559,0.000
1718680471.298,-540.039,401.855,1.465,820.312,0.000
1718680471.302,-17.578,224.121,-102.051,478.516,0.000
1718680471.305,233.398,-219.238,-413.086,-594.727,0.000
1718680471.309,-18.066,-525.391,-504.395,-850.586,0.000
1718680471.313,-480.469,-336.914,-375.977,15.137,0.000
1718680471.317,-486.816,-188.965,-303.711,834.473,0.000
1718680471.321,-22.461,-500.488,-306.152,600.586,0.000
1718680471.325,250.977,-171.875,-334.961,-482.422,0.000
1718680471.329,91.309,-163.574,-453.125,-884.277,0.000
1718680471.333,-377.441,-350.586,-425.293,-127.441,0.000
1718680471.337,298.828,157.715,-102.051,773.438,0.000
1718680471.341,284.180,457.520,0.000,658.203,0.000
1718680471.345,-155.762,-217.285,-411.133,-333.008,0.000
1718680471.348,-452.637,-751.953,-579.102,-873.047,0.000
1718680471.352,-217.773,-266.113,-368.164,-277.832,0.000
1718680471.356,254.395,100.586,-228.027,715.820,0.000
1718680471.360,328.125,-12.207,-265.625,745.605,0.000
1718680471.364,-67.871,-633.789,-550.293,-184.082,0.000
1718680471.368,-452.148,-554.688,-484.375,-895.996,0.000
1718680471.372,-277.344,95.703,-250.488,-414.062,0.000
1718680471.376,232.910,261.719,-87.402,644.043,0.000
1718680471.380,352.051,269.043,-56.641,801.270,0.000
1718680471.384,-17.090,187.500,-182.617,-41.992,0.000
1718680471.388,-426.758,-56.641,-351.074,-854.980,0.000
1718680471.391,-314.941,-171.387,-422.363,-498.535,0.000
1718680471.395,167.969,63.477,-197.754,553.711,0.000
1718680471.399,357.422,360.840,34.668,840.332,0.000
1718680471.403,50.781,91.309,-181.641,104.004,0.000
1718680471.407,-395.020,-570.312,-514.648,-807.617,0.000
1718680471.411,-361.328,-789.551,-483.398,-593.750,0.000
1718680471.415,75.195,59.570,-104.492,407.715,0.000
1718680471.419,339.844,534.668,90.332,829.102,0.000
1718680471.423,120.117,119.141,-139.648,249.512,0.000
1718680471.427,-388.184,-218.262,-375.488,-774.414,0.000
1718680471.431,-419.922,-103.027,-331.543,-713.867,0.000
1718680471.434,37.109,145.020,-172.363,303.223,0.000
1718680471.438,332.031,-40.527,-203.125,857.910,0.000
1718680471.442,140.625,-166.504,-291.016,358.398,0.000
1718680471.446,-367.188,-127.930,-339.844,-723.145,0.000
1718680471.450,-443.359,-469.238,-427.246,-784.180,0.000
1718680471.454,-16.602,-809.570,-484.863,187.988,0.000
1718680471.458,294.434,-286.133,-158.691,792.969,0.000
1718680471.462,162.109,236.816,37.109,421.875,0.000
1718680471.466,-304.199,-100.586,-312.988,-615.723,0.000
1718680471.470,-474.609,-465.820,-432.617,-861.328,0.000
1718680471.473,-116.699,-57.617,-244.141,0.488,0.000
1718680471.477,296.875,398.926,35.156,791.016,0.000
1718680471.481,229.004,242.676,-25.391,546.875,0.000
1718680471.485,-252.930,-276.855,-371.582,-512.695,0.000
1718680471.489,-483.887,-383.789,-399.902,-928.223,0.000
1718680471.493,-172.363,-101.562,-285.645,-173.340,0.000
1718680471.497,281.738,-255.371,-323.730,761.230,0.000
1718680471.501,262.695,-546.387,-267.578,633.301,0.000
1718680471.505,-214.844,-176.270,-234.863,-417.480,0.000
1718680471.509,-500.488,-193.359,-384.277,-940.430,0.000
1718680471.512,-226.074,-460.938,-445.312,-291.504,0.000
1718680471.516,228.027,-208.496,-171.875,687.500,0.000
1718680471.520,267.578,184.082,48.828,678.711,0.000
1718680471.524,0.000,38.086,0.000,-270.020,0.000
1718680471.528,0.000,-521.484,0.000,-932.129,0.000
1718680471.532,0.000,-444.336,0.000,-441.406,0.000
1718680471.536,0.000,-57.617,0.000,597.656,0.000
1718680471.540,0.000,155.762,0.000,747.559,0.000
1718680471.544,0.000,-437.988,0.000,-97.656,0.000
1718680471.548,0.000,-783.691,0.000,-921.875,0.000
1718680471.552,0.000,-239.746,0.000,-571.777,0.000
1718680471.555,0.000,2.441,0.000,502.930,0.000
1718680471.559,0.000,-514.648,0.000,816.895,0.000
1718680471.563,0.000,-276.367,0.000,41.016,0.000
1718680471.567,0.000,-142.578,0.000,-886.719,0.000
1718680471.571,-380.859,-367.676,-194.824,-634.766,0.000
1718680471.575,87.891,-298.828,-513.672,407.715,0.000
1718680471.579,300.781,51.270,-404.785,791.016,0.000
1718680471.583,59.570,280.273,-137.695,180.664,0.000
1718680471.587,-419.434,-299.805,-21.973,-807.617,0.000
1718680471.591,-426.758,-765.625,-395.996,-743.652,0.000
1718680471.594,21.973,-380.371,-515.625,274.902,0.000
1718680471.598,293.945,290.039,-297.363,818.848,0.000
1718680471.602,123.535,21.484,-196.289,357.910,0.000
1718680471.606,-390.137,-714.355,-394.531,-715.820,0.000
1718680471.610,-493.164,-321.289,-298.828,-832.031,0.000
1718680471.614,-51.270,128.418,-328.613,151.855,0.000
1718680471.618,327.148,100.098,-49.316,836.426,0.000
1718680471.622,186.523,219.727,-18.066,448.730,0.000
1718680471.626,-338.867,-43.457,-274.414,-645.020,0.000
1718680471.630,-487.305,-568.848,-467.285,-874.512,0.000
1718680471.634,-104.980,-536.133,-355.469,8.301,0.000
1718680471.637,285.645,-148.438,-137.207,809.082,0.000
1718680471.641,207.520,42.480,-11.719,557.617,0.000
1718680471.645,-271.973,-174.805,-295.898,-537.598,0.000
1718680471.649,-488.281,-839.355,-641.113,-922.363,0.000
1718680471.653,-208.984,-456.543,-340.332,-166.504,0.000
1718680471.657,253.418,395.996,78.125,761.230,0.000
1718680471.661,271.973,339.355,10.254,659.668,0.000
1718680471.665,-213.379,-149.902,-293.945,-406.738,0.000
1718680471.669,-522.949,-304.199,-415.039,-988.770,0.000
1718680471.673,-238.770,-95.215,-293.945,-330.566,0.000
1718680471.677,253.418,127.441,-54.199,740.234,0.000
1718680471.680,291.016,220.215,34.180,753.906,0.000
1718680471.684,-132.812,-199.219,-331.055,-252.441,0.000
1718680471.688,-503.906,-586.426,-492.676,-972.168,0.000
1718680471.692,-297.852,-639.648,-453.613,-459.473,0.000
1718680471.696,215.332,-612.305,-266.113,636.230,0.000
1718680471.700,305.664,154.297,82.031,769.531,0.000
1718680471.704,-71.777,212.402,-90.820,-102.051,0.000
1718680471.708,-469.727,-588.379,-530.762,-938.477,0.000
1718680471.712,-362.305,-541.504,-436.035,-606.445,0.000
1718680471.716,131.348,199.219,-5.371,505.371,0.000
1718680471.719,327.148,255.859,2.441,839.844,0.000
1718680471.723,1.465,-284.668,-377.441,74.219,0.000
1718680471.727,-482.422,-459.473,-484.863,-890.625,0.000
1718680471.731,-428.711,-495.117,-400.879,-685.059,0.000
1718680471.735,75.684,-332.520,-289.062,422.363,0.000
1718680471.739,331.543,-497.070,-333.496,902.832,0.000
1718680471.743,43.945,-320.312,-176.758,219.238,0.000
1718680471.747,-458.984,-113.770,-288.086,-841.797,0.000
1718680471.751,-440.430,-515.137,-522.949,-769.531,0.000
1718680471.755,24.902,-377.930,-255.859,281.250,0.000
1718680471.759,0.000,261.230,62.988,855.469,0.000
1718680471.762,0.000,340.820,0.977,349.609,0.000
1718680471.766,0.000,-316.895,-416.504,-749.023,0.000
1718680471.770,0.000,-579.102,-479.004,-865.234,0.000
1718680471.774,0.000,-143.066,-249.023,141.113,0.000
1718680471.778,0.000,-29.297,-201.172,861.328,0.000
1718680471.782,0.000,-349.609,-325.195,485.352,0.000
1718680471.786,0.000,-837.402,-539.551,-649.414,0.000
1718680471.790,0.000,-561.523,-424.316,-977.051,0.000
1718680471.794,0.000,-96.680,-287.109,-29.785,0.000
1718680471.798,0.000,-61.035,-239.258,844.238,0.000
1718680471.801,0.000,95.703,-81.543,557.617,0.000
1718680471.805,-281.738,-188.477,-360.352,-547.852,0.000
1718680471.809,-506.348,-696.777,-564.941,-964.844,0.000
1718680471.813,-180.176,-780.273,-501.953,-159.180,0.000
1718680471.817,257.324,-346.191,-292.969,788.574,0.000
1718680471.821,237.305,108.398,-80.566,652.344,0.000
1718680471.825,-220.703,-396.484,-405.273,-411.133,0.000
1718680471.829,-511.719,-997.559,-722.168,-970.703,0.000
1718680471.833,-271.484,-615.723,-441.406,-342.285,0.000
1718680471.837,219.727,136.719,-21.484,714.844,0.000
1718680471.841,276.855,202.148,-31.250,741.211,0.000
1718680471.844,-169.434,-333.008,-342.773,-278.809,0.000
1718680471.848,-521.484,-509.277,-468.750,-984.375,0.000
1718680471.852,-330.566,-300.293,0.000,-481.934,0.000
1718680471.856,185.547,-60.059,0.000,641.602,0.000
1718680471.860,302.734,75.195,0.000,798.340,0.000
1718680471.864,-133.301,-85.449,0.000,-203.613,0.000
1718680471.868,-515.625,-563.965,0.000,-982.422,0.000
1718680471.872,-362.305,-837.402,0.000,-562.500,0.000
1718680471.876,114.258,-586.914,0.000,527.832,0.000
1718680471.880,298.340,133.789,0.000,836.426,0.000
1718680471.884,-24.902,144.531,0.000,59.570,0.000
1718680471.887,-476.074,-629.395,0.000,-888.672,0.000
1718680471.891,-412.598,-718.750,0.000,-680.176,0.000
1718680471.895,83.008,-39.551,0.000,429.199,0.000
1718680471.899,339.844,244.629,7.812,880.371,0.000
1718680471.903,72.266,-135.254,-262.207,220.215,0.000
1718680471.907,-448.730,-574.219,-520.020,-826.660,0.000
1718680471.911,-465.820,-682.129,-465.820,-769.531,0.000
1718680471.915,18.066,-241.211,-289.551,303.223,0.000
1718680471.919,318.848,-238.770,-310.547,905.273,0.000
1718680471.923,107.910,-343.262,-329.102,366.211,0.000
1718680471.927,-407.227,-513.672,-426.270,-762.695,0.000
1718680471.930,-479.980,-652.344,-492.188,-856.934,0.000
1718680471.934,-21.973,-807.617,-536.621,187.988,0.000
1718680471.938,305.176,-200.684,-116.699,869.629,0.000
1718680471.942,165.039,295.410,42.480,449.219,0.000
1718680471.946,-343.262,-335.938,-446.777,0.000,0.000
1718680471.950,-530.273,-693.359,-510.742,0.000,0.000
1718680471.954,-143.555,-237.305,-280.273,0.000,0.000
1718680471.958,280.273,186.035,-87.402,0.000,0.000
1718680471.962,138.672,-74.219,-187.988,0.000,0.000
1718680471.966,-318.848,-729.492,-522.461,0.000,0.000
1718680471.969,-511.719,-916.504,-553.223,0.000,0.000
1718680471.973,-211.914,-279.785,-318.359,0.000,0.000
1718680471.977,275.879,-136.719,-262.695,0.000,0.000
1718680471.981,239.746,-608.398,-311.035,0.000,0.000
1718680471.985,-265.625,-507.812,-376.953,0.000,0.000
1718680471.989,-542.480,-474.121,-489.258,0.000,0.000
1718680471.993,-276.855,-601.074,0.000,-332.031,0.000
1718680471.997,213.867,-41.992,0.000,728.516,0.000
1718680472.001,289.551,230.957,0.000,736.816,0.000
1718680472.005,-155.273,-396.973,0.000,-272.461,0.000
1718680472.009,-517.090,-854.980,0.000,-965.820,0.000
1718680472.012,-326.172,-822.754,0.000,-449.219,0.000
1718680472.016,174.316,-330.078,0.000,644.043,0.000
1718680472.020,302.734,24.414,0.000,790.039,0.000
1718680472.024,-80.078,-670.410,0.000,-97.168,0.000
1718680472.028,-542.969,-787.109,0.000,-952.637,0.000
1718680472.032,-414.551,-241.211,0.000,-635.742,0.000
1718680472.036,123.535,8.789,0.000,535.156,0.000
1718680472.040,312.012,28.320,-462.402,866.211,0.000
1718680472.044,-28.320,-165.039,-72.754,38.574,0.000
1718680472.048,-509.277,-383.301,-45.410,-917.480,0.000
1718680472.051,-435.059,-465.332,-437.988,-709.961,0.000
1718680472.055,64.941,-221.680,-556.641,412.598,0.000
1718680472.059,312.012,-14.648,-494.141,878.906,0.000
1718680472.063,59.082,-126.465,-267.090,210.938,0.000
1718680472.067,-436.523,-646.484,-104.980,-837.402,0.000
1718680472.071,-460.449,-869.141,-513.184,-812.500,0.000
1718680472.075,0.000,-61.035,-556.152,268.066,0.000
1718680472.079,329.102,431.641,-331.543,908.691,0.000
1718680472.083,140.137,84.473,-229.492,388.184,0.000
1718680472.087,-418.457,-294.922,-428.711,-764.648,0.000
1718680472.091,-540.527,-263.184,-400.879,-944.824,0.000
1718680472.094,-46.387,-61.035,-270.508,116.211,0.000
1718680472.098,354.980,-152.344,-309.082,937.012,0.000
1718680472.102,176.758,-170.410,-322.754,468.750,0.000
1718680472.106,-375.000,-511.719,-466.309,-698.242,0.000
1718680472.110,-536.621,-825.684,-532.227,-991.699,0.000
1718680472.114,-102.539,-903.320,-552.246,-25.391,0.000
1718680472.118,282.227,-319.336,-231.445,887.207,0.000
1718680472.122,198.242,359.863,62.012,626.953,0.000
1718680472.126,-276.855,-126.465,-359.863,-544.922,0.000
1718680472.130,-543.457,-653.320,-526.367,-1000.000,0.000
1718680472.134,-214.844,-229.980,-271.973,-224.121,0.000
1718680472.137,255.859,276.367,-12.207,821.289,0.000
1718680472.141,241.699,172.363,-93.262,718.262,0.000
1718680472.145,-250.000,-232.910,-358.887,-437.012,0.000
1718680472.149,-554.688,-450.195,-451.660,-1000.000,0.000
1718680472.153,-234.375,-460.449,-408.691,-285.645,0.000
1718680472.157,247.070,-399.902,-325.195,800.293,0.000
1718680472.161,284.180,-577.148,-323.242,782.715,0.000
1718680472.165,-169.434,-218.262,-288.086,-287.109,0.000
1718680472.169,-539.062,-267.090,-409.180,-1000.000,0.000
1718680472.173,-319.336,-602.051,-495.605,-500.000,0.000
1718680472.176,197.754,-80.078,-160.645,674.316,0.000
1718680472.180,307.129,436.523,84.473,852.051,0.000
1718680472.184,-94.238,176.758,-150.391,-94.727,0.000
1718680472.188,-503.418,-708.984,-605.957,-966.309,0.000
1718680472.192,-385.254,-866.699,-552.246,-629.883,0.000
1718680472.196,119.141,-34.180,-77.637,550.781,0.000
1718680472.200,334.473,104.004,-27.344,916.504,0.000
1718680472.204,-0.488,-664.062,-498.535,96.191,0.000
1718680472.208,-520.020,-781.738,-539.062,-908.203,0.000
1718680472.212,-440.430,-272.949,-346.680,-750.488,0.000
1718680472.216,111.328,-98.633,-313.965,422.852,0.000
1718680472.219,345.703,-47.852,-138.184,931.152,0.000
1718680472.223,40.527,153.320,-49.316,213.379,0.000
1718680472.227,-463.379,-287.598,-421.875,-860.840,0.000
1718680472.231,-465.820,-648.926,-540.527,-827.637,0.000
1718680472.235,24.414,-328.613,-233.398,294.922,0.000
1718680472.239,338.379,261.719,61.035,920.898,0.000
1718680472.243,132.812,299.805,-6.348,370.117,0.000
1718680472.247,-396.973,-506.836,-447.266,-761.719,0.000
1718680472.251,-517.578,-859.863,-539.551,-898.926,0.000
1718680472.255,-81.543,-232.422,-253.418,142.578,0.000
1718680472.258,324.219,275.391,0.977,918.945,0.000
1718680472.262,201.172,20.508,-103.027,506.836,0.000
1718680472.266,-365.723,-428.711,-433.594,-690.918,0.000
1718680472.270,-545.410,-345.703,-407.227,-997.559,0.000
1718680472.274,-117.188,-144.531,-312.012,-26.855,0.000
1718680472.278,303.223,-111.816,-266.113,893.066,0.000
1718680472.282,213.379,-42.480,-177.246,628.418,0.000
1718680472.286,-317.383,-424.316,-419.434,-568.848,0.000
1718680472.290,-547.852,-635.742,-508.301,-1000.000,0.000
1718680472.294,-173.828,-753.418,-485.352,-167.480,0.000
1718680472.298,262.695,-281.738,-219.238,842.285,0.000
1718680472.301,225.098,350.586,51.758,690.430,0.000
1718680472.305,-231.934,-61.035,-268.555,-440.430,0.000
1718680472.309,-515.625,-887.207,-704.102,-1000.000,0.000
1718680472.313,-279.785,-500.000,-421.387,-364.746,0.000
1718680472.317,223.633,338.379,28.809,752.441,0.000
1718680472.321,0.000,294.922,-24.414,781.250,0.000
1718680472.325,0.000,-217.285,-333.984,-307.617,0.000
1718680472.329,0.000,-410.156,-450.684,-1000.000,0.000
1718680472.333,0.000,-315.918,-384.277,-431.641,0.000
1718680472.337,0.000,-214.844,-291.016,707.031,0.000
1718680472.341,0.000,-195.312,-245.605,836.914,0.000
1718680472.344,0.000,-263.184,-333.496,-133.301,0.000
1718680472.348,0.000,-323.730,-429.199,-995.117,0.000
1718680472.352,0.000,-620.605,-510.742,-616.211,0.000
1718680472.356,0.000,-656.738,-331.543,563.477,0.000
1718680472.360,0.000,161.621,56.641,863.770,0.000
1718680472.364,0.000,184.082,-136.230,18.555,0.000
1718680472.368,-494.141,-628.418,0.000,-931.152,0.000
1718680472.372,-438.965,-552.734,0.000,-750.000,0.000
1718680472.376,73.730,34.180,0.000,422.852,0.000
1718680472.380,345.215,39.062,0.000,934.570,0.000
1718680472.384,50.293,-276.367,0.000,149.902,0.000
1718680472.387,-480.957,-726.562,0.000,-887.695,0.000
1718680472.391,-482.422,-784.180,0.000,-822.754,0.000
1718680472.395,34.668,-431.641,0.000,291.504,0.000
1718680472.399,357.422,-587.891,0.000,947.754,0.000
1718680472.403,90.332,-312.012,0.000,327.148,0.000
1718680472.407,-481.445,-175.293,0.000,-820.801,0.000
1718680472.411,-538.574,-601.074,0.000,-932.617,0.000
1718680472.415,-64.941,-464.355,-237.305,108.887,0.000
1718680472.419,268.555,105.957,91.309,865.723,0.000
1718680472.423,109.863,186.035,36.621,418.457,0.000
1718680472.427,-426.758,-522.949,-420.410,-735.840,0.000
1718680472.430,-616.699,-937.500,-511.719,-1000.000,0.000
1718680472.434,-223.145,-792.969,-343.750,-135.742,0.000
1718680472.438,169.922,-572.266,-265.137,757.812,0.000
1718680472.442,54.199,-614.746,-351.562,413.086,0.000
1718680472.446,-490.723,-943.359,-574.219,-679.199,0.000
1718680472.450,-759.277,-1000.000,-525.879,-1000.000,0.000
1718680472.454,-416.992,-810.547,-375.488,-393.555,0.000
1718680472.458,43.945,-529.297,-276.855,611.816,0.000
1718680472.462,0.000,-267.578,-146.973,428.223,0.000
1718680472.466,0.000,-456.055,-351.562,-634.766,0.000
1718680472.469,0.000,-915.527,-585.938,-1000.000,0.000
1718680472.473,0.000,-968.750,-563.477,-514.648,0.000
1718680472.477,0.000,-440.430,-282.715,571.777,0.000
1718680472.481,0.000,-331.055,-256.836,570.801,0.000
1718680472.485,0.000,-770.020,-500.977,-465.332,0.000
1718680472.489,0.000,-992.676,-692.871,-1000.000,0.000
1718680472.493,0.000,-608.398,-473.145,-605.469,0.000
1718680472.497,0.000,183.105,-13.184,548.828,0.000
1718680472.501,0.000,393.555,52.734,735.840,0.000
1718680472.505,0.000,9.277,-245.117,-221.680,0.000
1718680472.509,-596.191,-363.281,0.000,-1000.000,0.000
1718680472.512,-407.715,-327.637,0.000,-642.578,0.000
1718680472.516,137.207,66.895,0.000,545.410,0.000
1718680472.520,297.852,230.469,0.000,865.234,0.000
1718680472.524,-49.805,160.156,0.000,-1.953,0.000
1718680472.528,-493.652,-312.988,0.000,-936.523,0.000
1718680472.532,-388.672,-680.176,0.000,-676.270,0.000
1718680472.536,130.859,-654.297,0.000,503.906,0.000
1718680472.540,337.891,265.625,0.000,938.477,0.000
1718680472.544,60.547,491.211,0.000,216.797,0.000
1718680472.548,-426.758,-349.121,0.000,-847.168,0.000
1718680472.551,-415.039,-451.172,0.000,-749.512,0.000
1718680472.555,96.680,118.652,-197.754,381.348,0.000
1718680472.559,395.996,404.297,-42.480,996.094,0.000
1718680472.563,190.918,-99.121,-375.000,443.848,0.000
1718680472.567,-352.539,-755.371,-622.070,-749.023,0.000
1718680472.571,-414.062,-707.520,-475.586,-786.621,0.000
1718680472.575,62.012,-395.020,-371.582,275.391,0.000
1718680472.579,417.969,-569.336,-481.445,979.004,0.000
1718680472.583,245.605,-335.449,-349.121,547.852,0.000
1718680472.587,-307.617,-88.867,-375.000,-680.664,0.000
1718680472.591,-424.316,-466.797,-541.016,-888.184,0.000
1718680472.594,-11.230,-387.695,-365.234,104.492,0.000
1718680472.598,390.625,254.883,-32.227,931.152,0.000
1718680472.602,289.551,432.129,-14.160,672.363,0.000
1718680472.606,-234.375,-188.477,-460.449,-526.367,0.000
1718680472.610,-446.289,-630.371,-557.129,-937.500,0.000
1718680472.614,-91.797,-232.422,-338.867,-63.477,0.000
1718680472.618,379.395,245.605,-164.062,877.930,0.000
1718680472.622,348.145,-68.359,-301.758,773.926,0.000
1718680472.626,-176.758,-834.473,-530.762,-392.578,0.000
1718680472.630,-481.445,-758.301,-482.910,-1000.000,0.000
1718680472.633,-166.016,-231.934,-375.488,-263.184,0.000
1718680472.637,360.840,-125.000,-297.363,813.965,0.000
1718680472.641,363.770,-38.086,-237.793,799.805,0.000
1718680472.645,-115.234,-33.203,-369.629,-281.738,0.000
1718680472.649,-450.195,-626.953,-583.984,-983.887,0.000
1718680472.653,-228.516,-779.297,-573.242,-392.090,0.000
1718680472.657,280.762,-124.023,-269.043,737.305,0.000
1718680472.661,359.863,-3.418,-234.863,875.488,0.000
1718680472.665,-71.289,-203.613,-419.922,-159.180,0.000
1718680472.669,-446.289,-812.988,-642.578,-973.633,0.000
1718680472.673,-303.711,-861.816,-545.898,-521.973,0.000
1718680472.676,204.590,49.805,-171.387,628.906,0.000
1718680472.680,399.902,268.066,-58.105,943.848,0.000
1718680472.684,48.340,-654.785,-530.273,102.051,0.000
1718680472.688,-458.008,-824.707,-601.074,-912.598,0.000
1718680472.692,-366.211,-310.059,-386.719,-661.133,0.000
1718680472.696,179.199,-122.559,-332.031,537.109,0.000
1718680472.700,400.879,-32.715,-245.117,968.262,0.000
1718680472.704,79.102,46.387,-231.934,213.867,0.000
1718680472.708,-422.852,-308.594,-455.566,-858.887,0.000
1718680472.712,-409.180,-674.805,-559.082,-743.164,0.000
1718680472.716,71.777,-646.973,-389.648,386.719,0.000
1718680472.719,382.812,-296.387,-305.176,966.797,0.000
1718680472.723,152.344,0.488,-272.949,382.324,0.000
1718680472.727,-372.559,-567.871,-558.105,-770.020,0.000
1718680472.731,-433.594,-938.477,-622.070,-844.238,0.000
1718680472.735,18.066,-204.102,-249.023,210.449,0.000
1718680472.739,375.000,263.672,-58.594,946.777,0.000
1718680472.743,212.891,-144.531,-292.969,520.020,0.000
1718680472.747,-355.469,-508.301,-505.859,-702.148,0.000
1718680472.751,-495.117,-565.430,-507.812,-937.012,0.000
1718680472.755,-49.805,-605.957,-433.105,81.543,0.000
1718680472.759,339.355,-297.363,-322.266,922.852,0.000
1718680472.762,225.586,-133.301,-307.617,619.141,0.000
1718680472.766,-291.992,-521.484,-475.098,-599.609,0.000
1718680472.770,-476.562,-648.926,-497.559,-1000.000,0.000
1718680472.774,-78.125,-845.215,-570.801,-58.105,0.000
1718680472.778,337.402,-364.258,-310.547,889.160,0.000
1718680472.782,266.113,270.020,-66.406,695.312,0.000
1718680472.786,-220.703,-213.867,-417.480,-460.449,0.000
1718680472.790,-511.719,-723.145,-563.477,-1000.000,0.000
1718680472.794,-212.891,-349.121,-354.004,-283.691,0.000
1718680472.798,299.316,182.129,-76.172,805.664,0.000
1718680472.802,324.219,110.840,-110.840,783.691,0.000
1718680472.805,-161.133,-260.254,-418.457,-330.078,0.000
1718680472.809,-517.090,-750.000,-570.801,-1000.000,0.000
1718680472.813,-272.949,-611.328,-438.965,-430.664,0.000
1718680472.817,269.043,-302.734,-338.867,731.445,0.000
1718680472.821,356.934,-602.539,-365.234,842.285,0.000
1718680472.825,-103.516,-264.160,-351.562,-193.848,0.000
1718680472.829,-492.188,-351.562,-473.633,-994.141,0.000
1718680472.833,-313.965,-647.461,-554.688,-550.781,0.000
1718680472.837,0.000,-156.738,-266.602,614.258,0.000
1718680472.841,0.000,411.133,68.848,898.926,0.000
1718680472.845,0.000,31.738,-220.703,19.043,0.000
1718680472.848,0.000,-792.480,-627.441,-933.105,0.000
1718680472.852,0.000,-639.648,-493.164,-673.340,0.000
1718680472.856,0.000,-239.258,-278.809,523.926,0.000
1718680472.860,0.000,-147.461,-252.441,951.660,0.000
1718680472.864,0.000,-664.062,-525.391,200.684,0.000
1718680472.868,0.000,-763.184,-525.879,-868.164,0.000
1718680472.872,0.000,-242.676,-340.820,-805.176,0.000
1718680472.876,0.000,-44.922,-294.434,350.098,0.000
1718680472.880,0.000,61.523,-135.742,932.617,0.000
1718680472.884,199.707,208.496,-56.152,312.012,0.000
1718680472.887,356.445,-99.609,-347.656,-806.152,0.000
1718680472.891,5.859,-541.016,-541.504,-840.820,0.000
1718680472.895,-453.125,-416.504,-331.543,234.375,0.000
1718680472.899,-371.094,104.492,-73.242,927.734,0.000
1718680472.903,165.039,-122.559,-285.645,459.961,0.000
1718680472.907,375.977,-766.602,-586.426,-720.703,0.000
1718680472.911,66.406,-923.340,-629.883,-940.918,0.000
1718680472.915,-452.637,-297.852,-324.707,41.992,0.000
1718680472.919,-424.316,55.176,-171.387,909.180,0.000
1718680472.923,86.426,-145.020,-311.035,591.797,0.000
1718680472.926,351.074,-329.590,-433.594,-624.512,0.000
1718680472.930,-519.043,-382.812,-442.871,-1000.000,0.000
1718680472.934,-126.465,-197.754,-344.727,-119.141,0.000
1718680472.938,332.031,-180.176,-319.824,869.629,0.000
1718680472.942,277.344,-163.574,-292.969,696.289,0.000
1718680472.946,-235.840,-153.320,-368.164,-504.883,0.000
1718680472.950,-493.652,-631.836,-510.254,-1000.000,0.000
1718680472.954,-171.387,-953.613,-617.676,-229.980,0.000
1718680472.958,266.113,-278.809,-234.863,809.082,0.000
1718680472.962,279.297,458.008,119.629,726.074,0.000
1718680472.966,-148.438,8.301,-240.234,-359.863,0.000
1718680472.969,-501.465,-636.719,-471.191,-1000.000,0.000
1718680472.973,-270.508,-350.586,-353.027,-413.086,0.000
1718680472.977,0.000,-30.273,0.000,739.746,0.000
1718680472.981,0.000,-8.789,0.000,833.496,0.000
1718680472.985,0.000,-137.207,0.000,-193.848,0.000
1718680472.989,0.000,-327.637,0.000,-999.023,0.000
1718680472.993,0.000,-184.082,0.000,-540.039,0.000
1718680472.997,0.000,-139.160,0.000,653.320,0.000
1718680473.001,0.000,-258.789,0.000,921.875,0.000
1718680473.005,0.000,20.996,0.000,10.742,0.000
1718680473.008,0.000,-180.176,0.000,-939.453,0.000
1718680473.012,0.000,-642.090,0.000,-654.297,0.000
1718680473.016,0.000,-332.520,0.000,517.090,0.000
1718680473.020,0.000,385.742,0.000,922.363,0.000
1718680473.024,257.812,305.176,-0.977,161.133,0.000
1718680473.028,312.012,-479.980,-458.984,-878.418,0.000
1718680473.032,-114.746,-621.582,-479.492,-745.117,0.000
1718680473.036,-499.512,-261.719,-249.023,398.926,0.000
1718680473.040,-321.289,-51.758,-94.238,955.078,0.000
1718680473.044,219.727,-379.883,-289.551,347.656,0.000
1718680473.047,367.188,-687.012,-512.695,-799.805,0.000
1718680473.051,-25.879,-303.711,-341.797,-848.145,0.000
1718680473.055,-485.352,37.598,-148.926,258.301,0.000
1718680473.059,-369.629,-352.051,-296.387,966.309,0.000
1718680473.063,154.297,-58.105,-96.680,458.984,0.000
1718680473.067,366.211,51.270,-222.168,-730.957,0.000
1718680473.071,66.895,-481.934,-514.160,-909.668,0.000
1718680473.075,-420.898,-309.082,-248.535,94.727,0.000
1718680473.079,-403.809,345.703,74.219,918.457,0.000
1718680473.083,100.586,565.918,120.605,595.215,0.000
1718680473.086,391.602,-43.457,-272.949,-609.375,0.000
1718680473.090,139.160,-700.195,-499.512,-971.680,0.000
1718680473.094,-418.945,-484.863,-273.926,-62.988,0.000
1718680473.098,-448.242,204.102,53.223,872.070,0.000
1718680473.102,36.621,129.395,-36.621,695.312,0.000
1718680473.106,357.422,-639.160,-364.258,-482.910,0.000
1718680473.110,167.480,-331.055,-357.422,-1000.000,0.000
1718680473.114,-369.141,105.957,-180.176,-248.047,0.000
1718680473.118,279.785,160.645,2.441,813.965,0.000
1718680473.122,266.602,485.840,125.488,753.418,0.000
1718680473.126,-198.242,270.996,-122.559,-359.375,0.000
1718680473.129,-524.414,-480.957,-446.777,-1000.000,0.000
1718680473.133,-272.461,-480.469,-412.109,-318.848,0.000
1718680473.137,253.906,-39.551,-106.934,770.996,0.000
1718680473.141,310.059,321.289,107.910,814.941,0.000
1718680473.145,-137.207,302.734,-63.965,-199.707,0.000
1718680473.149,-495.117,-713.379,-573.730,-955.078,0.000
1718680473.153,-337.402,-666.504,-434.082,-518.555,0.000
1718680473.157,174.316,446.777,82.031,617.188,0.000
1718680473.161,342.773,599.121,134.766,897.949,0.000
1718680473.165,0.000,185.547,-21.484,-20.996,0.000
1718680473.169,0.000,-88.379,-305.664,-954.102,0.000
1718680473.172,0.000,-7.324,-305.176,-654.297,0.000
1718680473.176,0.000,230.469,-2.441,538.086,0.000
1718680473.180,0.000,362.793,135.742,941.406,0.000
1718680473.184,0.000,60.059,-87.891,149.414,0.000
1718680473.188,0.000,-343.262,-345.703,-894.531,0.000
1718680473.192,0.000,-518.555,-445.801,-741.699,0.000
1718680473.196,0.000,-630.859,-314.941,406.250,0.000
1718680473.200,0.000,280.273,118.164,919.922,0.000
1718680473.204,0.000,496.094,54.199,290.527,0.000
1718680473.208,0.000,-439.941,-431.152,-812.988,0.000
1718680473.212,-444.336,-700.195,-478.027,-830.078,0.000
1718680473.215,16.602,51.758,-108.887,256.348,0.000
1718680473.219,350.098,336.914,53.223,936.035,0.000
1718680473.223,192.871,-142.090,-205.078,457.520,0.000
1718680473.227,-354.492,-347.656,-425.293,-732.422,0.000
1718680473.231,-475.586,-474.121,-416.016,-913.574,0.000
1718680473.235,-25.879,-351.074,-303.711,115.234,0.000
1718680473.239,355.469,-417.969,-357.910,930.176,0.000
1718680473.243,189.941,-245.605,-177.246,554.688,0.000
1718680473.247,-340.332,-14.648,-246.094,-655.762,0.000
1718680473.251,-499.023,-349.609,-466.309,-1000.000,0.000
1718680473.254,-125.000,-348.633,-298.828,-82.520,0.000
1718680473.258,287.598,215.820,19.531,857.910,0.000
1718680473.262,238.770,472.168,87.402,638.672,0.000
1718680473.266,-245.117,-148.438,-356.934,-529.297,0.000
1718680473.270,-518.066,-772.461,-535.156,-1000.000,0.000
1718680473.274,-212.891,-399.902,-335.449,-249.023,0.000
1718680473.278,274.414,-34.180,-206.543,814.941,0.000
1718680473.282,284.668,-291.992,-309.570,741.699,0.000
1718680473.286,-206.543,-836.426,-575.684,-375.977,0.000
1718680473.290,-545.898,-654.297,-501.465,-1000.000,0.000
1718680473.293,-275.391,-291.992,-368.164,-420.410,0.000
1718680473.297,245.605,-181.641,-324.707,731.934,0.000
1718680473.301,302.246,30.762,-162.598,787.109,0.000
1718680473.305,-159.668,-48.828,-218.750,-252.441,0.000
1718680473.309,-530.762,-436.035,-467.773,-1000.000,0.000
1718680473.313,-325.195,-797.852,-565.430,-524.902,0.000
1718680473.317,184.570,-499.023,-353.516,649.414,0.000
1718680473.321,304.688,122.559,-76.172,851.074,0.000
1718680473.325,-75.195,-260.254,-343.750,-74.219,0.000
1718680473.329,-486.328,-961.426,-737.793,-959.473,0.000
1718680473.333,-396.484,-836.426,-540.039,-681.152,0.000
1718680473.336,105.957,-61.035,-155.762,483.398,0.000
1718680473.340,330.078,150.879,-105.469,891.113,0.000
1718680473.344,2.441,-283.691,-335.938,83.984,0.000
1718680473.348,-498.047,-523.926,-489.746,-915.039,0.000
1718680473.352,-435.059,-476.074,-448.242,-765.625,0.000
1718680473.356,92.285,-267.090,-346.191,393.555,0.000
1718680473.360,345.703,-90.820,-241.699,930.176,0.000
1718680473.364,85.449,-15.625,-244.141,259.277,0.000
1718680473.368,-438.965,-391.602,-474.121,-838.379,0.000
1718680473.372,-462.402,-905.762,-626.465,-832.031,0.000
1718680473.376,14.160,-731.934,-422.363,262.207,0.000
1718680473.379,310.059,56.641,-45.410,902.832,0.000
1718680473.383,128.418,60.059,-125.977,395.020,0.000
1718680473.387,-389.160,-712.402,-569.824,-756.348,0.000
1718680473.391,-511.230,-772.461,-556.641,-933.105,0.000
1718680473.395,-52.734,-238.770,-295.898,100.098,0.000
1718680473.399,343.262,111.328,-141.602,919.434,0.000
1718680473.403,205.078,-125.977,-288.574,551.758,0.000
1718680473.407,-334.473,-596.191,-551.270,-661.133,0.000
1718680473.411,-519.531,-860.840,-558.594,-1000.000,0.000
1718680473.415,-125.000,-443.359,-362.793,-60.059,0.000
1718680473.419,317.871,-465.820,-437.500,885.254,0.000
1718680473.422,218.750,-451.660,-342.285,640.625,0.000
1718680473.426,-308.105,-230.957,-351.074,-555.664,0.000
1718680473.430,-537.109,-565.430,-536.133,-1000.000,0.000
1718680473.434,-175.781,-900.879,-627.441,-202.148,0.000
1718680473.438,277.344,-282.715,-312.988,814.941,0.000
1718680473.442,253.418,98.633,-194.336,704.102,0.000
1718680473.446,-214.355,-568.359,-509.277,-406.250,0.000
1718680473.450,-534.668,-837.402,-537.598,-1000.000,0.000
1718680473.454,-271.973,-457.520,-391.602,-404.297,0.000
1718680473.458,250.000,20.996,-190.918,739.746,0.000
1718680473.462,305.176,-18.066,-192.871,789.062,0.000
1718680473.465,-154.785,-699.219,-506.836,-249.023,0.000
1718680473.469,-539.551,-915.039,-549.316,-1000.000,0.000
1718680473.473,-344.238,-435.059,-408.691,-540.527,0.000
1718680473.477,219.238,-370.117,-382.324,667.480,0.000
1718680473.481,339.355,-658.203,-358.887,865.234,0.000
1718680473.485,-105.957,-250.000,-335.449,-114.258,0.000
1718680473.489,-530.273,-382.812,-487.793,-977.539,0.000
1718680473.493,0.000,-820.312,-597.656,-626.953,0.000
1718680473.497,0.000,-331.543,-319.336,542.969,0.000
1718680473.501,0.000,91.309,-174.316,895.020,0.000
1718680473.504,0.000,-355.957,-415.039,84.961,0.000
1718680473.508,0.000,-875.977,-613.770,-894.043,0.000
1718680473.512,0.000,-978.516,-592.285,-733.398,0.000
1718680473.516,0.000,-459.473,-313.965,402.344,0.000
1718680473.520,0.000,55.176,-177.734,918.945,0.000
1718680473.524,0.000,-623.535,-539.551,270.996,0.000
1718680473.528,0.000,-913.086,-606.445,-831.055,0.000
1718680473.532,0.000,-488.281,-427.246,-842.285,0.000
1718680473.536,0.000,-318.848,-376.465,278.320,0.000
1718680473.540,306.641,-162.109,-253.906,922.852,0.000
1718680473.544,110.352,21.484,-175.293,372.559,0.000
1718680473.548,-412.109,-321.289,-433.594,-777.344,0.000
1718680473.551,-499.512,-793.457,-614.746,-935.059,0.000
1718680473.555,-54.199,-689.941,-442.383,98.145,0.000
1718680473.559,309.570,-341.309,-304.688,895.996,0.000
1718680473.563,174.805,-435.059,-377.930,515.137,0.000
1718680473.567,-351.074,-883.789,-606.934,-668.945,0.000
1718680473.571,-536.133,-1000.000,-680.176,-993.652,0.000
1718680473.575,-156.738,-519.043,-407.715,-60.547,0.000
1718680473.579,284.668,-9.766,-225.098,877.930,0.000
1718680473.583,220.215,-253.906,-371.094,622.559,0.000
1718680473.587,-318.359,-613.281,-510.742,-579.102,0.000
1718680473.590,-557.617,-607.422,-495.117,-1000.000,0.000
1718680473.594,-199.219,-607.910,-485.840,-216.797,0.000
1718680473.598,275.391,-645.996,-461.426,833.496,0.000
1718680473.602,237.793,-304.688,-331.055,710.938,0.000
1718680473.606,-249.023,-560.059,-513.184,-435.059,0.000
1718680473.610,-534.180,-1000.000,-715.820,-1000.000,0.000
1718680473.614,-265.137,-898.926,-605.957,-360.352,0.000
1718680473.618,219.238,-454.102,-397.461,753.906,0.000
1718680473.622,253.906,-185.059,-267.090,767.578,0.000
1718680473.626,-177.734,-338.867,-435.059,-279.785,0.000
1718680473.629,-515.625,-926.758,-763.184,-1000.000,0.000
1718680473.633,-344.727,-818.848,-568.848,-526.855,0.000
1718680473.637,176.758,-141.602,-252.930,652.344,0.000
1718680473.641,309.082,-97.656,-312.500,867.188,0.000
1718680473.645,-123.047,-477.051,-448.242,-108.398,0.000
1718680473.649,-528.809,-695.801,-537.109,-979.004,0.000
1718680473.653,-359.863,-862.793,-570.801,-615.234,0.000
1718680473.657,159.668,-783.203,-443.359,580.078,0.000
1718680473.661,348.145,-760.254,-427.246,930.664,0.000
1718680473.665,-25.391,-411.133,-402.832,55.176,0.000
1718680473.669,-502.930,-530.762,-507.812,-924.316,0.000
1718680473.672,-417.969,-897.949,-602.539,-706.543,0.000
1718680473.676,79.590,-616.699,-416.992,443.359,0.000
1718680473.680,0.000,-118.652,-237.305,916.992,0.000
1718680473.684,0.000,-84.473,-316.406,221.680,0.000
1718680473.688,0.000,-809.570,-667.480,-838.867,0.000
1718680473.692,0.000,-1000.000,-654.785,-818.359,0.000
1718680473.696,0.000,-460.449,-361.816,289.062,0.000
1718680473.700,0.000,-340.332,-354.004,947.266,0.000
1718680473.704,0.000,-840.820,-592.773,415.527,0.000
1718680473.708,0.000,-965.820,-631.348,-769.531,0.000
1718680473.712,0.000,-672.363,-498.047,-915.527,0.000
1718680473.715,0.000,-440.918,-400.391,148.926,0.000
1718680473.719,0.000,-308.105,-288.086,921.387,0.000
1718680473.723,0.000,-64.941,-259.277,498.535,0.000
1718680473.727,-364.746,-320.312,-445.312,-689.941,0.000
1718680473.731,-489.746,-804.199,-612.305,-931.152,0.000
1718680473.735,-102.539,-866.211,-500.488,12.695,0.000
1718680473.739,281.250,-202.637,-260.254,879.395,0.000
1718680473.743,197.266,102.539,-208.496,611.328,0.000
1718680473.747,-302.734,-626.465,-559.082,-563.477,0.000
1718680473.751,-536.621,-1000.000,-749.023,-1000.000,0.000
1718680473.755,-216.309,-495.605,-398.926,-197.266,0.000
1718680473.758,263.672,57.129,-198.730,836.426,0.000
1718680473.762,249.512,-114.746,-326.172,725.586,0.000
1718680473.766,-253.906,-466.797,-479.492,-440.430,0.000
1718680473.770,-538.086,-626.465,-509.277,-1000.000,0.000
1718680473.774,-256.348,-577.148,-446.289,-335.938,0.000
1718680473.778,239.258,-383.789,-383.301,779.297,0.000
1718680473.782,269.531,-201.172,-316.406,778.809,0.000
1718680473.786,-185.547,-587.402,-488.770,-299.805,0.000
1718680473.790,-549.805,-897.461,-597.656,-1000.000,0.000
1718680473.794,-324.707,-918.945,-647.949,-458.984,0.000
1718680473.798,209.961,-724.609,-473.145,703.613,0.000
1718680473.801,293.457,-297.852,-250.000,836.914,0.000
1718680473.805,-108.887,-350.098,-421.875,-131.836,0.000
1718680473.809,-497.559,-928.711,-758.301,-980.469,0.000
1718680473.813,-405.273,-868.652,-552.246,-638.672,0.000
1718680473.817,105.957,-303.711,-267.090,536.133,0.000
1718680473.821,283.203,-255.859,-333.984,860.352,0.000
1718680473.825,-100.098,-671.875,-458.496,-10.254,0.000
1718680473.829,-584.473,-969.727,-573.242,-951.660,0.000
1718680473.833,-520.996,-961.426,-542.480,-793.945,0.000
1718680473.837,-25.879,-812.988,-430.176,332.031,0.000
1718680473.841,191.895,-920.410,-421.875,781.738,0.000
1718680473.844,-116.211,-983.398,-466.309,45.898,0.000
1718680473.848,-633.789,-972.656,-583.496,-913.086,0.000
1718680473.852,-628.418,-1000.000,-721.680,-920.898,0.000
1718680473.856,-164.062,-948.242,-590.332,108.398,0.000
1718680473.860,89.355,-605.469,-344.238,676.758,0.000
1718680473.864,-111.328,-537.598,-393.555,106.934,0.000
1718680473.868,0.000,-932.617,-693.848,-857.910,0.000
1718680473.872,0.000,-1000.000,-673.340,-1000.000,0.000
1718680473.876,0.000,-912.598,-506.348,-51.270,0.000
1718680473.880,0.000,-927.734,-487.793,751.465,0.000
1718680473.883,0.000,-945.312,-541.504,299.805,0.000
1718680473.887,0.000,-1000.000,-709.961,-776.855,0.000
1718680473.891,0.000,-987.305,-677.246,-1000.000,0.000
1718680473.895,0.000,-762.207,-476.074,-143.555,0.000
1718680473.899,0.000,-852.539,-557.617,805.176,0.000
1718680473.903,0.000,-525.391,-422.852,476.562,0.000
1718680473.907,0.000,-413.086,-458.008,-676.758,0.000
1718680473.911,0.000,-921.387,-658.691,-1000.000,0.000
1718680473.915,-245.117,-862.793,-538.574,-200.195,0.000
1718680473.919,228.516,-193.848,-330.566,801.758,0.000
1718680473.923,212.402,134.766,-284.668,665.527,0.000
1718680473.926,-263.672,-419.434,-584.473,-468.750,0.000
1718680473.930,-543.457,-898.926,-679.688,-1000.000,0.000
1718680473.934,-231.445,-881.348,-574.219,-312.012,0.000
1718680473.938,261.230,-444.336,-400.391,791.504,0.000
1718680473.942,309.570,-306.641,-427.246,800.781,0.000
1718680473.946,-132.324,-869.141,-654.785,-273.438,0.000
1718680473.950,-514.648,-742.676,-584.961,-1000.000,0.000
1718680473.954,-284.668,-416.992,-511.230,-434.570,0.000
1718680473.958,277.344,-395.996,-490.234,734.375,0.000
1718680473.962,0.000,-144.531,-369.141,881.836,0.000
1718680473.966,0.000,-211.426,-482.910,-97.656,0.000
1718680473.969,0.000,-917.480,-756.836,-941.895,0.000
1718680473.973,0.000,-1000.000,-809.570,-483.398,0.000
1718680473.977,0.000,-537.109,-543.457,664.551,0.000
1718680473.981,0.000,-492.676,-461.914,978.027,0.000
1718680473.985,0.000,-778.809,-640.137,125.977,0.000
1718680473.989,0.000,-982.910,-851.562,-871.094,0.000
1718680473.993,0.000,-905.762,-696.777,-615.234,0.000
1718680473.997,0.000,-399.902,-425.781,544.922,0.000
1718680474.001,0.000,-209.961,-443.848,999.512,0.000
1718680474.005,0.000,-588.867,-543.945,285.156,0.000
1718680474.009,-355.957,-879.883,-665.527,-833.008,0.000
1718680474.012,-342.285,-810.059,-629.883,-694.824,0.000
1718680474.016,174.805,-622.070,-533.203,458.008,0.000
1718680474.020,458.008,-407.715,-458.496,999.512,0.000
1718680474.024,216.309,-262.695,-458.496,447.754,0.000
1718680474.028,-302.734,-791.992,-680.176,-739.746,0.000
1718680474.032,-363.281,-1000.000,-765.625,-764.160,0.000
1718680474.036,102.051,-882.812,-659.668,323.730,0.000
1718680474.040,424.805,-222.656,-406.738,983.398,0.000
1718680474.044,262.207,-27.832,-404.785,573.730,0.000
1718680474.048,-258.301,-719.238,-696.289,-647.461,0.000
1718680474.051,-412.598,-891.113,-688.965,-890.625,0.000
1718680474.055,8.301,-484.863,-492.676,117.676,0.000
1718680474.059,429.199,-141.113,-408.691,952.148,0.000
1718680474.063,343.750,-487.793,-565.918,710.449,0.000
1718680474.067,-197.754,-962.891,-701.660,-530.762,0.000
1718680474.071,-439.453,-837.402,-634.277,-959.961,0.000
1718680474.075,-53.711,-787.109,-580.566,-40.039,0.000
1718680474.079,437.500,-895.020,-644.531,892.090,0.000
1718680474.083,363.281,-548.828,-487.305,744.141,0.000
1718680474.087,-169.434,-449.707,-519.531,-419.922,0.000
1718680474.091,-449.219,-709.473,-639.160,-983.887,0.000
1718680474.094,-142.090,-566.406,-480.957,-212.891,0.000
1718680474.098,356.934,101.562,-263.672,821.777,0.000
1718680474.102,375.977,408.691,-238.281,831.543,0.000
1718680474.106,-98.633,-45.410,-467.285,-246.582,0.000
1718680474.110,-448.730,-524.902,-560.547,-968.262,0.000
1718680474.114,-212.402,-205.566,-402.832,-362.305,0.000
1718680474.118,312.988,332.520,-154.297,756.836,0.000
1718680474.122,405.762,116.699,-234.863,908.203,0.000
1718680474.126,-40.039,-528.809,-490.723,-91.309,0.000
1718680474.130,-457.520,-512.695,-476.074,-972.168,0.000
1718680474.133,-287.109,-195.312,-416.992,-500.977,0.000
1718680474.137,258.301,-191.406,-358.398,674.805,0.000
1718680474.141,416.992,-194.824,-291.992,938.477,0.000
1718680474.145,20.508,-211.426,-398.926,63.477,0.000
1718680474.149,-447.266,-479.980,-526.367,-916.504,0.000
1718680474.153,-342.285,-682.129,-566.406,-610.840,0.000
1718680474.157,163.086,-374.023,-393.066,569.336,0.000
1718680474.161,357.422,-133.301,-278.320,996.094,0.000
1718680474.165,47.363,-120.117,-339.844,235.352,0.000
1718680474.169,-419.922,-764.160,-656.738,-851.074,0.000
1718680474.173,-406.738,-962.891,-612.793,-717.285,0.000
1718680474.176,72.754,-231.445,-289.062,416.992,0.000
1718680474.180,375.488,24.414,-258.789,999.512,0.000
1718680474.184,162.598,-670.898,-531.250,442.383,0.000
1718680474.188,-410.156,-812.012,-593.262,-778.809,0.000
1718680474.192,-465.820,-464.844,-454.590,-833.008,0.000
1718680474.196,34.180,-326.660,-388.672,286.621,0.000
1718680474.200,363.281,-270.020,-316.406,983.398,0.000
1718680474.204,167.969,-304.688,-342.773,509.766,0.000
1718680474.208,-379.395,-491.211,-509.277,-703.125,0.000
1718680474.212,-498.535,-796.387,-624.512,-845.703,0.000
1718680474.216,-71.289,-892.578,-536.133,151.367,0.000
1718680474.219,316.406,-468.750,-335.449,931.641,0.000
1718680474.223,210.449,-64.453,-286.621,611.328,0.000
1718680474.227,-295.410,-585.449,-599.609,-584.473,0.000
1718680474.231,-506.348,-1000.000,-693.359,-958.008,0.000
1718680474.235,-143.066,-527.832,-419.922,-85.938,0.000
1718680474.239,319.824,-54.688,-311.035,880.371,0.000
1718680474.243,261.230,-246.094,-390.137,730.469,0.000
1718680474.247,-256.348,-500.000,-499.512,-465.820,0.000
1718680474.251,-512.207,-742.188,-584.473,-1000.000,0.000
1718680474.255,-216.797,-941.895,-581.543,-257.324,0.000
1718680474.259,269.043,-751.953,-520.996,815.918,0.000
1718680474.262,304.688,-543.945,-438.965,777.344,0.000
1718680474.266,-195.801,-765.625,-556.152,-351.562,0.000
1718680474.270,-528.809,-1000.000,-659.668,-1000.000,0.000
1718680474.274,-258.301,-993.164,-725.586,-388.672,0.000
1718680474.278,213.867,-564.453,-476.562,730.957,0.000
1718680474.282,276.855,-22.949,-281.738,805.664,0.000
1718680474.286,-144.043,-310.059,-516.113,-185.547,0.000
1718680474.290,-527.832,-876.465,-639.160,-1000.000,0.000
1718680474.294,-345.215,-721.191,-533.691,-583.008,0.000
1718680474.298,181.152,-281.250,-389.648,625.488,0.000
1718680474.302,337.891,-226.562,-418.457,901.367,0.000
1718680474.305,-65.430,-583.984,-544.922,-71.289,0.000
1718680474.309,-491.211,-969.238,-679.199,-969.727,0.000
1718680474.313,-379.883,-921.387,-625.000,-666.016,0.000
1718680474.317,130.859,-776.367,-525.879,520.508,0.000
1718680474.321,327.148,-830.566,-560.059,947.266,0.000
1718680474.325,-26.367,-489.258,-481.934,129.883,0.000
1718680474.329,-505.859,-649.414,-576.660,-894.531,0.000
1718680474.333,-440.430,-987.793,-685.547,-745.117,0.000
1718680474.337,0.000,-779.785,-533.203,398.926,0.000
1718680474.341,0.000,-242.188,-340.332,938.477,0.000
1718680474.345,0.000,-273.438,-443.848,313.477,0.000
1718680474.348,0.000,-880.371,-742.676,-810.547,0.000
1718680474.352,0.000,-896.973,-660.156,-842.285,0.000
1718680474.356,0.000,-702.148,-484.375,292.969,0.000
1718680474.360,0.000,-514.648,-431.152,968.750,0.000
1718680474.364,0.000,-772.461,-606.445,485.840,0.000
1718680474.368,0.000,-947.266,-660.645,-722.168,0.000
1718680474.372,0.000,-634.766,-542.480,-946.289,0.000
1718680474.376,0.000,-487.793,-474.121,88.867,0.000
1718680474.380,0.000,-406.738,-373.047,913.086,0.000
1718680474.383,53.711,-124.512,-355.957,563.477,0.000
1718680474.387,306.152,-333.496,-527.832,-643.066,0.000
1718680474.391,81.055,-790.039,-662.598,-1000.000,0.000
1718680474.395,-427.734,-656.738,-473.633,-83.984,0.000
1718680474.399,-485.840,-63.477,-288.574,870.605,0.000
1718680474.403,2.930,-125.000,-358.398,601.074,0.000
1718680474.407,321.777,-652.832,-575.684,-526.855,0.000
1718680474.411,149.414,-968.262,-721.191,-1000.000,0.000
1718680474.415,-400.391,-447.266,-426.270,-274.902,0.000
1718680474.419,-535.156,161.133,-212.891,805.176,0.000
1718680474.423,-81.543,-117.676,-365.234,756.836,0.000
1718680474.426,311.035,-399.414,-466.309,-385.254,0.000
1718680474.430,-540.039,-472.168,-502.930,-1000.000,0.000
1718680474.434,-295.410,-479.004,-472.656,-404.297,0.000
1718680474.438,225.586,-461.914,-425.293,742.676,0.000
1718680474.442,281.250,-269.531,-349.609,797.852,0.000
1718680474.446,-175.293,-88.379,-375.488,-249.512,0.000
1718680474.450,-538.086,-598.145,-559.570,-1000.000,0.000
1718680474.454,-320.801,-975.098,-680.664,-518.066,0.000
1718680474.458,170.410,-408.203,-359.863,628.418,0.000
1718680474.462,286.133,317.383,-94.238,847.656,0.000
1718680474.465,-73.242,138.184,-257.324,-61.523,0.000
1718680474.469,-501.465,-510.254,-447.266,-962.891,0.000
1718680474.473,-396.484,-259.766,-371.094,-672.852,0.000
1718680474.477,0.000,351.562,-109.863,507.812,0.000
1718680474.481,0.000,429.199,-6.348,918.945,0.000
1718680474.485,0.000,142.090,-208.984,109.863,0.000
1718680474.489,0.000,-66.895,-378.418,-899.414,0.000
1718680474.493,0.000,-133.789,-379.395,-682.129,0.000
1718680474.497,0.000,-149.902,-307.617,426.270,0.000
1718680474.501,0.000,-115.723,-190.918,935.547,0.000
1718680474.505,0.000,324.707,7.324,283.203,0.000
1718680474.508,0.000,275.879,-226.562,-833.496,0.000
1718680474.512,0.000,-250.488,-464.355,-833.984,0.000
1718680474.516,0.000,-114.258,-200.195,244.629,0.000
1718680474.520,0.000,661.133,167.480,897.949,0.000
1718680474.524,142.578,669.922,79.590,413.574,0.000
1718680474.528,-373.047,-83.008,-388.184,-747.070,0.000
1718680474.532,-494.141,-275.879,-439.941,-933.105,0.000
1718680474.536,-59.570,-6.836,-223.145,97.656,0.000
1718680474.540,317.383,507.324,54.688,901.855,0.000
1718680474.544,209.473,286.133,-71.289,548.828,0.000
1718680474.548,-340.820,-185.059,-355.469,-651.367,0.000
1718680474.551,-530.762,-101.074,-349.121,-1000.000,0.000
1718680474.555,-108.887,37.598,-224.609,-63.477,0.000
1718680474.559,323.730,-62.500,-225.586,882.324,0.000
1718680474.563,222.168,386.230,40.039,639.648,0.000
1718680474.567,-292.480,582.031,-17.090,-542.480,0.000
1718680474.571,-530.273,75.195,-368.652,-1000.000,0.000
1718680474.575,-187.988,60.547,-200.195,-241.699,0.000
1718680474.579,281.738,671.875,159.668,815.430,0.000
1718680474.583,279.297,990.723,204.102,734.375,0.000
1718680474.587,-183.105,506.836,-118.652,-389.648,0.000
1718680474.591,-500.000,-171.387,-364.746,-1000.000,0.000
1718680474.594,-248.535,-25.879,-204.102,-381.836,0.000
1718680474.598,248.535,756.348,153.320,739.746,0.000
1718680474.602,344.727,633.789,64.941,818.848,0.000
1718680474.606,-99.121,-197.754,-279.785,-219.238,0.000
1718680474.610,-503.906,-47.363,-311.035,-1000.000,0.000
1718680474.614,-293.945,308.594,-147.461,-524.902,0.000
1718680474.618,0.000,633.789,139.160,655.273,0.000
1718680474.622,0.000,936.035,265.625,875.488,0.000
1718680474.626,0.000,814.453,128.418,-74.707,0.000
1718680474.630,0.000,136.230,-251.953,-957.031,0.000
1718680474.634,0.000,-55.664,-303.711,-554.688,0.000
1718680474.637,0.000,310.059,30.273,580.566,0.000
1718680474.641,0.000,737.305,203.125,912.109,0.000
1718680474.645,0.000,831.055,111.816,102.539,0.000
1718680474.649,0.000,-268.555,-431.152,-897.949,0.000
1718680474.653,0.000,-291.016,-318.848,-723.633,0.000
1718680474.657,0.000,725.586,175.781,416.016,0.000
1718680474.661,0.000,882.812,193.848,950.195,0.000
1718680474.665,235.352,599.609,115.234,284.180,0.000
1718680474.669,347.656,157.227,-179.688,-834.473,0.000
1718680474.673,-47.852,82.031,-239.746,-826.172,0.000
1718680474.676,-456.543,405.273,49.316,282.227,0.000
1718680474.680,-314.453,573.730,154.297,909.180,0.000
1718680474.684,179.688,312.988,-14.648,413.574,0.000
1718680474.688,344.238,13.184,-267.090,-744.629,0.000
1718680474.692,23.926,-143.555,-370.117,-889.160,0.000
1718680474.696,-423.340,-512.207,-335.449,171.875,0.000
1718680474.700,-388.184,405.273,98.633,925.781,0.000
1718680474.704,99.121,824.707,141.602,535.645,0.000
1718680474.708,371.094,5.371,-330.078,-654.297,0.000
1718680474.712,-474.121,-262.207,-439.453,-981.445,0.000
1718680474.715,-96.191,192.871,-156.250,-44.434,0.000
1718680474.719,327.637,447.266,62.012,877.441,0.000
1718680474.723,219.238,38.574,-153.809,589.844,0.000
1718680474.727,-269.531,-269.043,-423.828,-564.941,0.000
1718680474.731,-487.793,-460.449,-434.570,-1000.000,0.000
1718680474.735,-161.621,-371.582,-351.562,-218.262,0.000
1718680474.739,320.801,-461.426,-438.965,831.543,0.000
1718680474.743,273.438,-245.605,-203.613,696.777,0.000
1718680474.747,-217.285,118.652,-153.320,-448.242,0.000
1718680474.751,-500.000,-279.297,-460.449,-1000.000,0.000
1718680474.755,-232.422,-423.340,-375.488,-385.742,0.000
1718680474.758,259.277,37.109,-102.051,730.957,0.000
1718680474.762,310.547,346.680,33.691,769.531,0.000
1718680474.766,-146.973,-20.508,-231.934,-269.531,0.000
1718680474.770,-512.695,-515.625,-470.703,-1000.000,0.000
1718680474.774,-280.273,-334.961,-395.020,-538.574,0.000
1718680474.778,229.980,-131.836,-297.363,652.832,0.000
1718680474.782,331.055,-281.250,-341.309,852.051,0.000
1718680474.786,-51.270,-841.797,-585.938,-75.684,0.000
1718680474.790,-505.859,-667.480,-518.555,-970.215,0.000
1718680474.794,-370.605,-273.438,-405.273,-644.531,0.000
1718680474.797,163.574,-276.855,-357.422,544.922,0.000
1718680474.801,323.242,-65.430,-255.371,882.812,0.000
1718680474.805,-20.020,-19.043,-331.543,50.781,0.000
1718680474.809,-473.145,-394.531,-509.277,-916.504,0.000
1718680474.813,-365.234,-845.703,-625.000,-669.434,0.000
1718680474.817,121.094,-628.418,-437.988,443.359,0.000
1718680474.821,327.637,-57.129,-267.090,895.996,0.000
1718680474.825,78.125,-379.395,-459.961,216.309,0.000
1718680474.829,-415.527,-945.801,-764.648,-854.980,0.000
1718680474.833,-458.984,-868.652,-630.859,-832.520,0.000
1718680474.837,33.203,-271.973,-319.336,255.859,0.000
1718680474.840,369.141,-36.621,-318.848,907.227,0.000
1718680474.844,158.203,-512.207,-438.477,378.906,0.000
1718680474.848,-398.438,-774.902,-556.641,-780.273,0.000
1718680474.852,-491.211,-664.551,-540.527,-917.969,0.000
1718680474.856,-24.414,-569.824,-457.031,145.508,0.000
1718680474.860,331.055,-413.574,-356.934,904.297,0.000
1718680474.864,181.641,-196.777,-345.215,471.680,0.000
1718680474.868,-345.215,-521.484,-520.996,-705.078,0.000
1718680474.872,-477.539,-986.816,-703.613,-972.168,0.000
1718680474.876,-71.777,-963.379,-702.148,-2.930,0.000
1718680474.880,304.688,-338.379,-380.859,841.797,0.000
1718680474.883,220.703,-14.160,-297.852,572.754,0.000
1718680474.887,-274.414,-565.430,-553.223,-585.449,0.000
1718680474.891,-506.348,-889.648,-612.793,-1000.000,0.000
1718680474.895,-174.316,-569.824,-461.914,-212.891,0.000
1718680474.899,0.000,-266.602,-372.559,821.289,0.000
1718680474.903,0.000,-482.422,-473.145,691.895,0.000
1718680474.907,0.000,-780.762,-622.559,-453.125,0.000
1718680474.911,0.000,-945.801,-664.551,-1000.000,0.000
1718680474.915,0.000,-783.691,-562.012,-368.164,0.000
1718680474.919,0.000,-838.379,-606.934,759.766,0.000
1718680474.923,0.000,-717.773,-500.977,751.465,0.000
1718680474.926,0.000,-455.566,-458.984,-333.008,0.000
1718680474.930,0.000,-803.223,-626.953,-1000.000,0.000
1718680474.934,0.000,-986.328,-722.168,-480.469,0.000
1718680474.938,0.000,-455.078,-435.059,654.785,0.000
1718680474.942,0.000,-44.922,-291.992,794.922,0.000
1718680474.946,289.551,-432.129,0.000,-154.297,0.000
1718680474.950,276.367,-887.207,0.000,-988.281,0.000
1718680474.954,-224.609,-689.941,0.000,-636.719,0.000
1718680474.958,-536.133,-353.516,0.000,546.387,0.000
1718680474.961,-241.699,-430.664,0.000,868.164,0.000
1718680474.965,271.484,-818.848,0.000,25.879,0.000
1718680474.969,301.758,-1000.000,0.000,-927.734,0.000
1718680474.973,-158.203,-745.117,0.000,-742.676,0.000
1718680474.977,-510.254,-634.766,0.000,442.383,0.000
1718680474.981,-286.621,-790.039,0.000,947.266,0.000
1718680474.985,187.988,-453.613,0.000,189.453,0.000
1718680474.989,287.598,-600.098,0.000,-867.188,0.000
1718680474.993,-452.637,-959.961,-533.691,-787.598,0.000
1718680474.997,38.574,-551.270,-623.047,301.270,0.000
1718680475.000,339.844,-128.906,-539.062,910.645,0.000
1718680475.004,139.648,-515.625,-406.250,366.211,0.000
1718680475.008,-377.441,-936.523,-395.508,-778.320,0.000
1718680475.012,-470.215,-1000.000,-547.363,-887.695,0.000
1718680475.016,-45.410,-852.051,-632.812,155.762,0.000
1718680475.020,312.012,-507.812,-549.316,917.969,0.000
1718680475.024,189.941,-796.875,-477.051,535.156,0.000
1718680475.028,-364.258,-920.410,-499.512,-681.152,0.000
1718680475.032,-527.344,-591.309,-456.055,-981.934,0.000
1718680475.036,-90.332,-477.539,-572.754,13.672,0.000
1718680475.040,0.000,-372.559,-341.797,889.648,0.000
1718680475.043,0.000,-86.914,-299.805,579.590,0.000
1718680475.047,0.000,-305.664,-504.395,-595.703,0.000
1718680475.051,0.000,-788.574,-631.348,-1000.000,0.000
1718680475.055,0.000,-717.773,-484.375,-173.340,0.000
1718680475.059,0.000,-451.660,-410.156,815.918,0.000
1718680475.063,0.000,-362.305,-388.184,679.199,0.000
1718680475.067,0.000,-561.523,-557.129,-457.031,0.000
1718680475.071,0.000,-958.008,-731.445,-1000.000,0.000
1718680475.075,0.000,-619.629,-508.301,-349.121,0.000
1718680475.079,0.000,-298.828,-372.559,758.789,0.000
1718680475.082,0.000,-378.418,-419.922,755.859,0.000
1718680475.086,-166.992,-469.727,-496.582,-331.543,0.000
1718680475.090,-537.109,-526.855,-522.461,-1000.000,0.000
1718680475.094,-316.895,-601.562,-521.484,-476.562,0.000
1718680475.098,199.219,-587.891,-463.867,682.617,0.000
1718680475.102,280.762,-140.625,-321.777,814.941,0.000
1718680475.106,-130.859,-397.461,-471.680,-159.180,0.000
1718680475.110,-525.391,-978.027,-649.902,-988.281,0.000
1718680475.114,-354.492,-1000.000,-748.535,-577.637,0.000
1718680475.118,136.719,-549.316,-471.680,564.453,0.000
1718680475.122,289.062,89.355,-225.098,827.637,0.000
1718680475.125,-32.715,-105.957,-411.133,13.184,0.000
1718680475.129,-500.977,-781.250,-579.590,-930.176,0.000
1718680475.133,-422.852,-695.312,-513.672,-716.309,0.000
1718680475.137,92.773,-312.012,-347.168,454.102,0.000
1718680475.141,315.918,-99.121,-268.066,900.879,0.000
1718680475.145,11.230,-217.285,-323.730,161.133,0.000
1718680475.149,-504.883,-535.156,-492.676,-877.930,0.000
1718680475.153,-486.328,-865.723,-581.543,-813.477,0.000
1718680475.157,21.484,-884.277,-475.586,302.734,0.000
1718680475.161,271.973,-849.609,-503.906,869.629,0.000
1718680475.165,-20.020,-484.375,-372.559,219.727,0.000
1718680475.168,-548.340,-650.391,-476.562,-842.285,0.000
1718680475.172,-609.375,-1000.000,-627.441,-964.355,0.000
1718680475.176,-192.871,-689.453,-400.879,0.488,0.000
1718680475.180,118.164,-514.160,0.000,710.938,0.000
1718680475.184,-53.711,-544.922,0.000,231.934,0.000
1718680475.188,-583.984,-863.281,0.000,-801.270,0.000
1718680475.192,-744.141,-1000.000,0.000,-1000.000,0.000
1718680475.196,-367.676,-938.477,0.000,-241.211,0.000
1718680475.200,40.527,-844.238,0.000,640.137,0.000
1718680475.204,-25.879,-932.129,0.000,324.707,0.000
1718680475.208,-552.734,-986.816,0.000,-729.980,0.000
1718680475.211,-743.652,-895.020,0.000,-1000.000,0.000
1718680475.215,-367.188,-745.117,0.000,-350.586,0.000
1718680475.219,77.637,-586.426,0.000,650.879,0.000
1718680475.223,45.898,-230.469,0.000,452.637,0.000
1718680475.227,-424.805,-293.945,-446.777,-618.164,0.000
1718680475.231,-679.688,-781.738,-625.488,-1000.000,0.000
1718680475.235,-383.789,-750.488,-475.098,-420.898,0.000
1718680475.239,115.234,-41.016,-249.512,658.203,0.000
1718680475.243,156.738,268.555,-203.125,651.855,0.000
1718680475.247,-267.578,-326.172,-491.211,-405.273,0.000
1718680475.250,-560.059,-992.676,-766.113,-1000.000,0.000
1718680475.254,-346.191,-650.391,-490.234,-496.094,0.000
1718680475.258,154.297,125.977,-205.566,652.344,0.000
1718680475.262,274.414,149.902,-257.324,812.500,0.000
1718680475.266,-132.812,-66.895,-379.395,-176.270,0.000
1718680475.270,-530.762,-227.539,-494.629,-994.629,0.000
1718680475.274,-358.887,-220.703,-466.797,-570.312,0.000
1718680475.278,184.082,-62.988,-370.117,611.328,0.000
1718680475.282,360.352,104.980,-299.805,905.273,0.000
1718680475.286,2.930,-132.812,-387.695,40.039,0.000
1718680475.290,-461.426,-411.133,-514.160,-915.527,0.000
1718680475.293,-336.914,-758.301,-661.133,-603.516,0.000
1718680475.297,178.711,-469.238,-399.902,549.805,0.000
1718680475.301,380.859,327.148,-164.062,972.168,0.000
1718680475.305,99.121,179.199,-368.164,256.348,0.000
1718680475.309,-367.188,-776.855,-692.383,-812.500,0.000
1718680475.313,-367.676,-764.160,-544.434,-701.660,0.000
1718680475.317,111.816,68.848,-258.789,418.457,0.000
1718680475.321,401.855,271.973,0.000,999.512,0.000
1718680475.325,180.664,-26.855,0.000,419.434,0.000
1718680475.329,-343.262,-275.391,0.000,-764.160,0.000
1718680475.333,-395.996,-291.016,0.000,-790.039,0.000
1718680475.336,68.359,-191.406,0.000,304.199,0.000
1718680475.340,396.973,-208.984,0.000,978.516,0.000
1718680475.344,219.727,-129.395,0.000,520.996,0.000
1718680475.348,-320.312,-172.363,0.000,-684.082,0.000
1718680475.352,-414.062,-628.418,0.000,-863.281,0.000
1718680475.356,1.953,-782.715,0.000,144.043,0.000
1718680475.360,358.887,36.621,0.000,924.805,0.000
1718680475.364,267.578,367.188,0.000,614.258,0.000
1718680475.368,-232.910,-423.828,-552.734,-566.895,0.000
1718680475.372,-455.078,-748.535,-573.242,-952.637,0.000
1718680475.376,-94.727,-271.973,-386.230,-56.152,0.000
1718680475.379,376.953,-112.793,-328.125,891.602,0.000
1718680475.383,332.031,-178.711,-404.297,735.840,0.000
1718680475.387,-199.707,-500.977,-534.180,-464.844,0.000
1718680475.391,-474.609,-691.406,-539.062,-1000.000,0.000
1718680475.395,-161.133,-295.898,-392.090,-220.215,0.000
1718680475.399,337.891,-396.484,-465.820,813.965,0.000
1718680475.403,318.848,-155.273,-235.840,774.902,0.000
1718680475.407,-144.043,254.883,-179.688,-316.895,0.000
1718680475.411,-449.707,-229.492,-473.145,-986.816,0.000
1718680475.415,-227.539,-405.273,-424.805,-371.094,0.000
1718680475.419,270.508,185.547,-143.066,741.211,0.000
1718680475.422,362.305,523.438,32.227,865.234,0.000
1718680475.426,-57.617,83.984,-250.000,-131.348,0.000
1718680475.430,-447.266,-490.234,-491.211,-938.965,0.000
1718680475.434,-275.879,-559.570,-453.125,-490.723,0.000
1718680475.438,223.633,1.465,-175.293,641.602,0.000
1718680475.442,379.395,133.301,-160.645,918.945,0.000
1718680475.446,9.766,-680.664,-505.371,41.992,0.000
1718680475.450,-478.516,-470.215,-455.078,-937.500,0.000
1718680475.454,-360.352,-64.453,-371.094,-661.133,0.000
1718680475.458,169.922,-43.457,-315.430,532.715,0.000
1718680475.462,0.000,245.117,-62.988,944.824,0.000
1718680475.465,0.000,394.531,-51.270,162.109,0.000
1718680475.469,0.000,-98.145,-399.902,-875.488,0.000
1718680475.473,0.000,-609.863,-555.176,-723.633,0.000
1718680475.477,0.000,-111.816,-223.145,401.855,0.000
1718680475.481,0.000,228.027,-22.461,951.172,0.000
1718680475.485,0.000,-12.695,-205.566,333.984,0.000
1718680475.489,0.000,-701.172,-594.727,-796.387,0.000
1718680475.493,0.000,-631.836,-489.746,-843.262,0.000
1718680475.497,0.000,283.203,-65.918,228.027,0.000
1718680475.501,0.000,517.578,39.551,948.730,0.000
1718680475.504,0.000,216.797,-95.215,483.887,0.000
1718680475.508,-372.559,57.617,-284.668,-719.238,0.000
1718680475.512,-494.629,80.078,-322.754,-921.875,0.000
1718680475.516,-46.387,115.723,-263.184,107.910,0.000
1718680475.520,326.172,294.434,-56.152,917.969,0.000
1718680475.524,211.426,550.293,94.238,579.102,0.000
1718680475.528,-286.133,44.922,-300.781,-596.191,0.000
1718680475.532,-486.328,-564.941,-493.652,-950.195,0.000
1718680475.536,-116.211,-737.305,-427.734,-35.156,0.000
1718680475.540,296.387,228.516,14.648,876.953,0.000
1718680475.544,256.348,633.301,107.422,697.266,0.000
1718680475.547,-229.004,-78.613,-317.383,-471.680,0.000
1718680475.551,-496.582,-206.055,-372.070,-1000.000,0.000
1718680475.555,-184.082,194.824,-173.340,-229.004,0.000
1718680475.559,291.016,608.887,88.867,823.730,0.000
1718680475.563,307.617,365.234,31.250,781.738,0.000
1718680475.567,-164.551,-90.820,-226.074,-333.008,0.000
1718680475.571,-508.789,-68.359,-303.711,-1000.000,0.000
1718680475.575,-254.395,-79.590,-273.926,-392.090,0.000
1718680475.579,273.438,-284.668,-251.953,750.977,0.000
1718680475.583,312.012,0.977,-54.199,796.875,0.000
1718680475.586,-123.535,497.559,48.828,-224.609,0.000
1718680475.590,-472.656,124.512,-266.113,-990.234,0.000
1718680475.594,-302.734,-173.340,-278.809,-527.832,0.000
1718680475.598,185.547,439.941,94.727,636.719,0.000
1718680475.602,336.914,698.730,154.785,893.555,0.000
1718680475.606,-24.414,166.504,-117.188,-19.043,0.000
1718680475.610,-488.770,-218.750,-328.613,-949.219,0.000
1718680475.614,-384.277,40.039,-231.445,-645.996,0.000
1718680475.618,119.629,480.957,56.641,521.973,0.000
1718680475.622,333.008,259.277,17.578,920.898,0.000
1718680475.626,30.762,-269.043,-256.348,143.555,0.000
1718680475.629,-467.773,-153.809,-329.590,-889.648,0.000
1718680475.633,-425.293,86.914,-267.578,-748.047,0.000
1718680475.637,68.359,94.727,-97.656,402.832,0.000
1718680475.641,311.523,236.816,52.246,928.711,0.000
1718680475.645,63.965,580.566,125.000,260.742,0.000
1718680475.649,-445.801,240.234,-177.734,-830.078,0.000
1718680475.653,-477.539,-212.402,-381.348,-840.820,0.000
1718680475.657,3.418,11.230,-99.121,241.699,0.000
1718680475.661,335.938,331.055,124.512,903.320,0.000
1718680475.665,156.738,227.539,14.160,352.539,0.000
1718680475.669,-369.141,-536.133,-470.215,-754.395,0.000
1718680475.672,-511.719,-545.898,-423.340,-914.062,0.000
1718680475.676,-83.008,281.250,-28.809,80.566,0.000
1718680475.680,309.082,562.500,103.027,905.273,0.000
1718680475.684,200.195,10.742,-199.707,572.754,0.000
1718680475.688,-335.938,-137.207,-337.402,-640.137,0.000
1718680475.692,-529.297,51.270,-280.273,-993.164,0.000
1718680475.696,-120.117,53.711,-250.977,-46.875,0.000
1718680475.700,310.059,251.953,-22.461,875.488,0.000
1718680475.704,231.445,544.434,127.930,632.324,0.000
1718680475.708,-281.738,312.988,-143.066,-532.715,0.000
1718680475.712,-515.625,-174.316,-414.062,-1000.000,0.000
1718680475.715,-175.293,-316.406,-303.223,-201.172,0.000
1718680475.719,279.297,66.406,20.020,823.730,0.000
1718680475.723,255.859,487.305,125.488,719.727,0.000
1718680475.727,-203.125,82.520,-215.820,-376.953,0.000
1718680475.731,-516.602,-741.699,-523.438,-1000.000,0.000
1718680475.735,-291.992,-58.105,-160.156,-395.020,0.000
1718680475.739,216.309,692.871,152.344,725.098,0.000
1718680475.743,287.109,451.660,46.387,802.246,0.000
1718680475.747,-136.719,266.602,-20.996,-226.562,0.000
1718680475.751,-491.211,66.895,-242.676,-981.934,0.000
1718680475.755,-300.293,-192.871,-346.191,-504.395,0.000
1718680475.758,209.473,11.230,-74.219,653.320,0.000
1718680475.762,321.777,217.285,58.594,873.047,0.000
1718680475.766,-83.496,219.727,-28.320,-62.012,0.000
1718680475.770,-504.883,98.633,-237.793,-961.914,0.000
1718680475.774,-364.746,-573.242,-528.320,-610.840,0.000
1718680475.778,128.418,-405.762,-225.586,540.527,0.000
1718680475.782,310.059,623.535,200.195,872.559,0.000
1718680475.786,11.719,559.570,42.480,86.426,0.000
1718680475.790,-457.031,-111.328,-265.625,-901.855,0.000
1718680475.794,-432.129,36.621,-207.520,-754.883,0.000
1718680475.798,48.828,509.277,76.660,380.371,0.000
1718680475.801,330.078,633.301,193.848,903.809,0.000
1718680475.805,84.961,397.461,84.473,190.430,0.000
1718680475.809,-432.617,-116.211,-252.441,-857.422,0.000
1718680475.813,-447.266,-321.289,-375.000,-824.219,0.000
1718680475.817,25.879,-49.316,-136.230,265.625,0.000
1718680475.821,312.500,369.141,149.902,925.781,0.000
1718680475.825,104.004,599.609,134.277,388.672,0.000
1718680475.829,-411.133,359.863,-93.750,-769.531,0.000
1718680475.833,-470.703,-237.793,-380.859,-908.203,0.000
1718680475.837,-33.691,-543.945,-238.770,111.816,0.000
1718680475.841,302.246,500.488,206.543,855.469,0.000
1718680475.844,185.547,801.758,185.547,504.395,0.000
1718680475.848,-316.406,-37.598,-248.047,-648.926,0.000
1718680475.852,-490.723,-71.289,-318.848,-986.816,0.000
1718680475.856,-110.352,220.703,-63.477,-42.480,0.000
1718680475.860,320.312,452.148,136.230,877.441,0.000
1718680475.864,261.230,108.887,-86.426,640.137,0.000
1718680475.868,-276.855,-190.430,-262.695,-550.781,0.000
1718680475.872,-527.832,154.297,-205.078,-1000.000,0.000
1718680475.876,-181.152,255.859,-98.633,-214.355,0.000
1718680475.880,278.809,403.809,83.496,806.641,0.000
1718680475.883,0.000,730.469,180.176,681.152,0.000
1718680475.887,0.000,617.676,54.688,-429.688,0.000
1718680475.891,0.000,54.199,-273.438,-1000.000,0.000
1718680475.895,0.000,-172.852,-276.855,-392.578,0.000
1718680475.899,0.000,404.785,97.656,706.055,0.000
1718680475.903,0.000,540.039,142.578,761.230,0.000
1718680475.907,0.000,-86.426,-186.035,-262.695,0.000
1718680475.911,0.000,-786.133,-542.480,-1000.000,0.000
1718680475.915,0.000,-187.012,-211.426,-542.480,0.000
1718680475.919,0.000,609.863,147.949,634.766,0.000
1718680475.923,0.000,495.605,73.242,837.402,0.000
1718680475.926,0.000,290.527,0.977,-117.188,0.000
1718680475.930,244.141,19.531,-260.742,-976.562,0.000
1718680475.934,-224.609,65.918,-250.000,-630.859,0.000
1718680475.938,-511.230,122.070,-47.363,560.547,0.000
1718680475.942,-241.211,150.879,37.109,897.461,0.000
1718680475.946,246.582,356.934,36.133,59.570,0.000
1718680475.950,300.293,-202.148,-331.055,-907.227,0.000
1718680475.954,-131.836,-830.566,-586.426,-690.430,0.000
1718680475.958,-493.652,-436.523,-221.680,414.062,0.000
1718680475.961,-341.797,520.996,152.832,872.559,0.000
1718680475.965,162.109,458.984,29.785,227.051,0.000
1718680475.969,309.082,-353.027,-326.172,-839.844,0.000
1718680475.973,-90.820,-276.855,-349.121,-826.660,0.000
1718680475.977,14.648,245.117,-83.008,279.297,0.000
1718680475.981,324.219,390.137,58.594,930.664,0.000
1718680475.985,127.441,111.328,-100.098,397.949,0.000
1718680475.989,-392.090,-208.008,-356.445,-768.555,0.000
1718680475.993,-490.723,-167.480,-335.938,-919.434,0.000
1718680475.997,-23.438,-283.691,-317.383,143.066,0.000
1718680476.001,328.613,-704.590,-400.391,930.664,0.000
1718680476.004,137.207,-13.672,-44.434,491.211,0.000
1718680476.008,-358.398,130.859,-199.219,-693.359,0.000
1718680476.012,-489.258,-547.363,-508.789,-964.844,0.000
1718680476.016,-106.934,-270.996,-226.562,-21.973,0.000
1718680476.020,290.039,434.082,126.465,858.887,0.000
1718680476.024,226.074,301.758,4.395,614.746,0.000
1718680476.028,-270.020,-385.742,-392.578,-546.387,0.000
1718680476.032,-517.578,-607.910,-501.953,-1000.000,0.000
1718680476.036,-190.918,-407.227,-337.402,-197.266,0.000
1718680476.040,264.648,135.254,-40.039,816.895,0.000
1718680476.044,265.137,-141.602,-265.625,720.703,0.000
1718680476.047,-230.469,-592.285,-493.164,-433.105,0.000
1718680476.051,-536.133,-401.855,-401.367,-1000.000,0.000
1718680476.055,-262.207,-237.305,-335.449,-352.539,0.000
1718680476.059,249.512,-520.996,-433.105,763.672,0.000
1718680476.063,268.555,-145.508,-127.441,761.230,0.000
1718680476.067,-176.758,98.145,-158.203,-295.410,0.000
1718680476.071,0.000,-666.016,-553.711,-1000.000,0.000
1718680476.075,0.000,-658.691,-431.152,-506.836,0.000
1718680476.079,0.000,89.355,-100.586,646.484,0.000
1718680476.083,0.000,358.398,32.227,822.266,0.000
1718680476.087,0.000,-72.754,-270.020,-122.070,0.000
1718680476.090,0.000,-833.984,-563.477,-969.727,0.000
1718680476.094,0.000,-804.688,-470.215,-625.000,0.000
1718680476.098,0.000,7.324,-170.410,529.297,0.000
1718680476.102,0.000,-3.906,-185.547,875.977,0.000
1718680476.106,0.000,-798.828,-515.137,55.664,0.000
1718680476.110,0.000,-666.992,-478.516,-927.246,0.000
1718680476.114,0.000,-367.676,-406.250,-738.770,0.000
1718680476.118,-510.254,-335.449,0.000,430.664,0.000
1718680476.122,-337.402,6.348,0.000,894.043,0.000
1718680476.126,175.781,43.945,0.000,56.641,0.000
1718680476.129,305.664,-612.305,0.000,-904.785,0.000
1718680476.133,-92.773,-972.168,0.000,-712.402,0.000
1718680476.137,-499.023,-727.539,0.000,301.270,0.000
1718680476.141,-372.070,-128.906,0.000,871.094,0.000
1718680476.145,126.953,103.027,0.000,346.680,0.000
1718680476.149,320.801,-724.121,0.000,-777.344,0.000
1718680476.153,-34.180,-840.820,0.000,-911.621,0.000
1718680476.157,-518.066,-61.035,0.000,134.766,0.000
1718680476.161,-413.086,168.945,0.000,900.391,0.000
1718680476.165,178.223,-101.562,-207.520,479.980,0.000
1718680476.169,-360.840,-333.496,-437.500,-700.195,0.000
1718680476.172,-501.465,-420.898,-454.102,-970.703,0.000
1718680476.176,-93.262,-317.871,-355.469,-5.859,0.000
1718680476.180,296.875,-88.379,-229.004,858.887,0.000
1718680476.184,220.215,-109.863,-269.531,574.219,0.000
1718680476.188,-300.293,-542.969,-470.703,-603.027,0.000
1718680476.192,-527.832,-905.762,-582.031,-1000.000,0.000
1718680476.196,-172.363,-860.840,-541.992,-162.598,0.000
1718680476.200,250.977,-37.109,-74.219,797.363,0.000
1718680476.204,237.305,278.809,18.066,645.020,0.000
1718680476.208,-228.516,-328.125,-405.273,-465.332,0.000
1718680476.212,-529.297,-624.023,-502.441,-1000.000,0.000
1718680476.215,-265.625,-234.863,-321.777,-356.445,0.000
1718680476.219,243.652,59.570,-164.551,750.000,0.000
1718680476.223,284.668,-147.949,-284.180,752.930,0.000
1718680476.227,-187.988,-223.633,-405.762,-319.824,0.000
1718680476.231,-521.484,-582.031,-506.348,-1000.000,0.000
1718680476.235,-310.059,-789.062,-516.602,-479.492,0.000
1718680476.239,194.336,-536.621,-426.270,663.086,0.000
1718680476.243,286.621,-110.352,-164.062,800.293,0.000
1718680476.247,-131.348,-161.621,-265.137,-170.898,0.000
1718680476.251,-526.855,-471.191,-485.840,-984.375,0.000
1718680476.254,-338.867,-843.262,-625.000,-581.055,0.000
1718680476.258,137.695,-354.980,-286.621,556.152,0.000
1718680476.262,277.344,354.004,79.590,836.426,0.000
1718680476.266,-53.223,39.551,-197.266,3.418,0.000
1718680476.270,-512.695,-566.406,-473.633,-934.082,0.000
1718680476.274,-429.688,-475.586,-428.223,-714.355,0.000
1718680476.278,87.402,-259.766,-306.641,432.617,0.000
1718680476.282,314.453,-312.988,-301.758,894.043,0.000
1718680476.286,30.762,-770.020,-491.211,194.336,0.000
1718680476.290,-482.422,-610.840,-475.586,-868.164,0.000
1718680476.294,-471.680,-268.555,-392.090,-815.430,0.000
1718680476.297,30.273,-198.242,-296.875,304.688,0.000
1718680476.301,311.523,-65.430,-126.465,901.367,0.000
1718680476.305,0.000,-54.199,-214.844,312.012,0.000
1718680476.309,0.000,-205.078,-399.414,-801.270,0.000
1718680476.313,0.000,-635.254,-521.973,-825.195,0.000
1718680476.317,0.000,-478.516,-333.008,187.988,0.000
1718680476.321,0.000,192.383,-14.648,876.953,0.000
1718680476.325,0.000,-33.203,-222.168,463.867,0.000
1718680476.329,0.000,-796.875,-648.438,-704.102,0.000
1718680476.333,0.000,-788.086,-527.832,-970.703,0.000
1718680476.336,0.000,-43.945,-170.898,-15.625,0.000
1718680476.340,0.000,286.133,-2.930,836.914,0.000
1718680476.344,0.000,18.555,-90.820,538.086,0.000
1718680476.348,0.000,-205.566,-320.312,-624.512,0.000
1718680476.352,-542.480,-362.793,-413.574,-1000.000,0.000
1718680476.356,-208.984,-427.734,-351.074,-200.195,0.000
1718680476.360,199.707,-464.844,-286.621,762.695,0.000
1718680476.364,112.305,-219.238,-108.398,525.879,0.000
1718680476.368,-394.531,-327.148,-202.148,-581.543,0.000
1718680476.372,-701.660,-942.383,-560.059,-1000.000,0.000
1718680476.376,-417.480,-1000.000,-642.578,-460.449,0.000
1718680476.379,50.781,-429.199,-217.285,545.410,0.000
1718680476.383,53.223,-75.195,0.488,472.168,0.000
1718680476.387,-408.203,-524.902,-353.516,-530.273,0.000
1718680476.391,-772.461,-875.488,-497.070,-1000.000,0.000
1718680476.395,-583.496,-596.680,-360.840,-688.477,0.000
1718680476.399,-65.430,-240.723,-176.758,401.855,0.000
1718680476.403,52.246,-341.797,-271.484,561.523,0.000
1718680476.407,-371.094,-606.445,-458.008,-394.043,0.000
1718680476.411,-747.070,-895.508,-518.555,-1000.000,0.000
1718680476.415,-584.961,-737.793,-441.406,-752.441,0.000
1718680476.419,-31.250,-615.234,-429.199,389.648,0.000
1718680476.422,157.227,-442.383,-312.500,697.266,0.000
1718680476.426,-210.449,-155.762,-240.234,-173.340,0.000
1718680476.430,-637.695,-270.508,-377.441,-971.680,0.000
1718680476.434,-495.605,-775.879,-580.078,-730.957,0.000
1718680476.438,-0.977,-210.938,-209.473,353.027,0.000
1718680476.442,207.031,673.828,180.664,789.062,0.000
1718680476.446,0.000,320.312,-82.520,89.355,0.000
1718680476.450,0.000,-302.734,-372.070,-889.160,0.000
1718680476.454,0.000,-161.621,-377.441,-802.734,0.000
1718680476.458,0.000,298.828,-123.535,308.105,0.000
1718680476.462,0.000,482.422,53.711,912.109,0.000
1718680476.465,0.000,91.797,-206.543,330.566,0.000
1718680476.469,0.000,-350.098,-444.336,-800.781,0.000
1718680476.473,0.000,-124.023,-353.516,-855.469,0.000
1718680476.477,0.000,-100.098,-346.191,231.934,0.000
1718680476.481,0.000,-507.812,-359.863,937.988,0.000
1718680476.485,0.000,128.418,-62.988,469.727,0.000
1718680476.489,0.000,148.438,-297.363,-688.477,0.000
1718680476.493,-52.734,-282.227,-465.332,-869.141,0.000
1718680476.497,-520.996,122.070,-177.734,105.957,0.000
1718680476.501,-498.047,548.340,57.617,922.363,0.000
1718680476.504,7.324,284.668,-43.457,631.348,0.000
1718680476.508,305.176,-245.605,-425.781,-554.688,0.000
1718680476.512,83.984,-564.941,-553.711,-914.551,0.000
1718680476.516,-430.664,-268.555,-289.551,-46.387,0.000
1718680476.520,-467.773,469.238,41.504,880.371,0.000
1718680476.524,20.996,-18.555,-269.531,775.879,0.000
1718680476.528,346.680,-393.066,-427.734,-403.809,0.000
1718680476.532,150.391,-20.996,-334.473,-964.844,0.000
1718680476.536,-352.539,-118.164,-413.086,-184.082,0.000
1718680476.540,330.078,63.477,-159.668,830.566,0.000
1718680476.543,338.379,448.730,56.152,808.105,0.000
1718680476.547,-119.141,311.523,-192.871,-271.973,0.000
1718680476.551,-437.500,-198.730,-466.309,-958.496,0.000
1718680476.555,-208.984,-330.566,-406.738,-339.355,0.000
1718680476.559,296.875,-49.316,-250.977,757.812,0.000
1718680476.563,373.047,198.242,-194.336,856.934,0.000
1718680476.567,-39.062,-68.359,-424.805,-113.770,0.000
1718680476.571,-422.852,-833.008,-660.645,-913.574,0.000
1718680476.575,-292.969,-348.145,-381.836,-492.676,0.000
1718680476.579,210.449,372.070,-77.637,652.832,0.000
1718680476.583,367.676,287.598,-46.387,934.570,0.000
1718680476.586,14.648,145.020,-157.227,50.293,0.000
1718680476.590,-412.598,-86.914,-390.137,-907.715,0.000
1718680476.594,-317.871,-355.469,-484.863,-599.609,0.000
1718680476.598,187.012,-352.539,-375.488,554.199,0.000
1718680476.602,388.672,26.855,-199.707,940.430,0.000
1718680476.606,91.309,-28.809,-295.410,206.543,0.000
1718680476.610,-378.906,-573.242,-515.137,-831.055,0.000
1718680476.614,-334.961,-903.320,-664.551,-664.062,0.000
1718680476.618,126.465,-388.672,-318.848,429.688,0.000
1718680476.622,380.859,474.609,78.613,951.660,0.000
1718680476.625,160.156,355.469,-98.633,366.211,0.000
1718680476.629,-352.051,-419.434,-441.406,-770.020,0.000
1718680476.633,-406.738,-491.211,-467.773,-792.969,0.000
1718680476.637,47.852,-40.039,-290.039,276.367,0.000
1718680476.641,373.535,92.285,-220.703,954.102,0.000
1718680476.645,208.496,-45.898,-281.250,491.699,0.000
1718680476.649,-314.941,-276.367,-446.289,-692.871,0.000
1718680476.653,-431.152,-622.070,-535.156,-859.863,0.000
1718680476.657,-13.672,-713.867,-478.516,147.949,0.000
1718680476.661,348.633,-791.504,-489.746,928.223,0.000
1718680476.665,229.492,-151.367,-232.422,573.730,0.000
1718680476.668,-278.320,-45.410,-335.938,-603.027,0.000
1718680476.672,-458.496,-611.328,-550.781,-932.129,0.000
1718680476.676,-96.680,-422.363,-373.535,-47.363,0.000
1718680476.680,317.383,197.754,-69.824,860.840,0.000
1718680476.684,263.184,348.633,-18.066,668.457,0.000
1718680476.688,-227.539,-410.156,-485.840,-464.844,0.000
1718680476.692,-490.723,-948.242,-611.328,-970.215,0.000
1718680476.696,-181.641,-462.891,-373.535,-230.469,0.000
1718680476.700,292.480,-120.117,-311.523,807.617,0.000
1718680476.704,299.805,-509.766,-475.098,760.254,0.000
1718680476.708,-201.172,-771.484,-526.855,-410.156,0.000
1718680476.711,-517.578,-637.207,-484.863,-1000.000,0.000
1718680476.715,-260.254,-501.465,-458.496,-371.582,0.000
1718680476.719,234.863,-223.633,-257.324,736.816,0.000
1718680476.723,317.871,147.949,-73.242,791.016,0.000
1718680476.727,-109.863,99.121,-217.773,-215.332,0.000
1718680476.731,-487.793,-419.922,-482.422,-984.375,0.000
1718680476.735,-310.059,-598.145,-464.355,-532.715,0.000
1718680476.739,188.477,10.254,-154.297,612.793,0.000
1718680476.743,313.477,343.750,25.391,836.914,0.000
1718680476.747,-100.098,-277.344,-369.141,-141.113,0.000
1718680476.750,-492.188,-887.207,-636.719,-975.098,0.000
1718680476.754,-379.883,-431.152,-404.785,-636.719,0.000
1718680476.758,120.117,133.301,-169.434,489.746,0.000
1718680476.762,350.586,110.840,-122.559,906.738,0.000
1718680476.766,32.715,-126.465,-312.988,127.441,0.000
1718680476.770,-449.707,-500.000,-495.605,-892.578,0.000
1718680476.774,-419.922,-540.039,-482.422,-749.023,0.000
1718680476.778,72.754,-286.133,-332.031,390.625,0.000
1718680476.782,345.215,-81.055,-237.305,920.898,0.000
1718680476.786,90.820,-194.336,-334.473,285.156,0.000
1718680476.790,-430.176,-428.223,-452.148,-815.430,0.000
1718680476.793,-436.035,-824.707,-625.977,-814.453,0.000
1718680476.797,20.020,-629.395,-410.156,259.766,0.000
1718680476.801,299.805,216.309,29.297,896.973,0.000
1718680476.805,142.578,229.980,-56.152,411.133,0.000
1718680476.809,-344.238,-688.965,-577.637,-723.145,0.000
1718680476.813,-476.074,-639.648,-525.391,-905.273,0.000
1718680476.817,-54.688,71.289,-185.059,90.820,0.000
1718680476.821,322.266,257.812,-24.902,885.742,0.000
1718680476.825,190.430,62.988,-120.605,533.691,0.000
1718680476.829,-316.406,-325.195,-395.996,-644.043,0.000
1718680476.833,-505.371,-391.602,-425.293,-986.328,0.000
1718680476.836,-104.004,-170.410,-307.617,-7.324,0.000
1718680476.840,313.477,-204.102,-267.578,885.742,0.000
1718680476.844,213.867,-65.918,-181.152,613.281,0.000
1718680476.848,-290.527,75.684,-245.117,-539.062,0.000
1718680476.852,-524.902,-412.598,-507.324,-1000.000,0.000
1718680476.856,-205.078,-804.688,-529.785,-215.820,0.000
1718680476.860,239.746,56.152,-25.391,774.414,0.000
1718680476.864,261.230,533.203,105.957,696.289,0.000
1718680476.868,-199.219,-114.746,-318.848,-385.254,0.000
1718680476.872,-533.691,-423.828,-453.125,-1000.000,0.000
1718680476.876,-282.715,-185.547,-359.863,-377.930,0.000
1718680476.879,228.027,-77.148,-266.602,757.324,0.000
1718680476.883,243.164,-61.523,-255.859,588.379,0.000
1718680476.887,-175.781,-276.367,-410.156,-401.367,0.000
1718680476.891,-506.348,-572.754,-462.891,-992.676,0.000
1718680476.895,-329.590,-457.031,-392.090,-535.156,0.000
1718680476.899,195.312,-497.559,-456.543,634.766,0.000
1718680476.903,296.875,-210.938,-173.828,815.918,0.000
1718680476.907,-95.215,323.730,1.465,-101.562,0.000
1718680476.911,-486.816,-121.582,-368.164,-949.219,0.000
1718680476.915,-360.840,-407.227,-354.004,-627.441,0.000
1718680476.919,125.000,226.562,25.879,509.766,0.000
1718680476.922,309.082,641.602,135.254,860.840,0.000
1718680476.926,0.977,318.359,-83.008,71.777,0.000
1718680476.930,-461.914,-269.043,-365.723,-905.273,0.000
1718680476.934,-400.391,-452.148,-431.152,-724.121,0.000
1718680476.938,69.336,77.148,-117.676,391.113,0.000
1718680476.942,324.707,341.309,50.293,908.691,0.000
1718680476.946,107.422,-481.445,-332.520,282.715,0.000
1718680476.950,-405.273,-292.480,-350.586,-824.219,0.000
1718680476.954,-449.707,126.465,-245.605,-822.754,0.000
1718680476.958,4.883,49.805,-157.715,260.254,0.000
1718680476.962,308.594,304.688,77.148,891.602,0.000
1718680476.965,120.605,521.484,98.633,369.629,0.000
1718680476.969,-401.367,-33.203,-314.453,-757.324,0.000
1718680476.973,-488.281,-710.449,-554.199,-858.887,0.000
1718680476.977,-66.895,-357.910,-312.988,149.414,0.000
1718680476.981,289.551,-62.012,-231.445,890.625,0.000
1718680476.985,165.039,-186.523,-310.547,526.855,0.000
1718680476.989,-333.496,-723.633,-635.254,-637.207,0.000
1718680476.993,-527.344,-834.961,-585.449,-976.562,0.000
1718680476.997,-153.320,-147.461,-287.598,-54.688,0.000
1718680477.001,299.316,141.113,-179.199,870.117,0.000
1718680477.004,218.750,-111.816,-252.441,631.348,0.000
1718680477.008,-295.898,-197.754,-425.293,-534.668,0.000
1718680477.012,-525.391,-267.090,-450.684,-992.676,0.000
1718680477.016,-196.289,-286.133,-424.805,-175.781,0.000
1718680477.020,264.648,-41.504,-193.848,822.754,0.000
1718680477.024,237.793,228.027,-30.762,726.562,0.000
1718680477.028,-239.746,-239.746,-374.023,-373.535,0.000
1718680477.032,-504.395,-773.438,-583.496,-977.051,0.000
1718680477.036,-221.191,-854.004,-597.168,-279.297,0.000
1718680477.040,209.473,-7.812,-148.926,776.367,0.000
1718680477.044,276.855,654.297,112.793,811.035,0.000
1718680477.047,-139.648,246.582,-179.688,-210.449,0.000
1718680477.051,-521.973,-33.691,-349.121,-985.352,0.000
1718680477.055,-311.523,305.176,-211.914,-481.445,0.000
1718680477.059,182.129,726.562,94.727,661.621,0.000
1718680477.063,315.918,581.543,102.539,867.188,0.000
1718680477.067,-51.758,285.645,-77.148,-77.637,0.000
1718680477.071,-476.562,263.672,-252.930,-960.938,0.000
1718680477.075,-347.168,177.734,-279.785,-571.777,0.000
1718680477.079,156.250,-2.930,-181.152,600.098,0.000
1718680477.083,329.102,356.934,43.457,901.367,0.000
1718680477.086,4.395,986.328,220.703,59.570,0.000
1718680477.090,-456.055,703.613,3.418,-903.320,0.000
1718680477.094,-385.254,398.438,-106.445,-711.426,0.000
1718680477.098,119.629,820.801,181.152,396.973,0.000
1718680477.102,336.914,999.512,347.168,875.977,0.000
1718680477.106,84.473,871.582,238.281,219.727,0.000
1718680477.110,-412.109,666.992,17.578,-833.496,0.000
1718680477.114,-444.336,851.562,122.559,-811.035,0.000
1718680477.118,50.781,988.281,285.156,270.020,0.000
1718680477.122,377.441,927.734,272.461,903.809,0.000
1718680477.126,145.508,886.719,227.051,369.141,0.000
1718680477.129,-396.484,902.832,168.945,-774.414,0.000
1718680477.133,-467.285,980.957,199.707,-896.484,0.000
1718680477.137,-13.184,881.348,195.801,142.578,0.000
1718680477.141,325.195,790.039,252.930,874.023,0.000
1718680477.145,176.270,966.309,362.793,408.203,0.000
1718680477.149,-354.004,960.449,200.684,-731.934,0.000
1718680477.153,-523.926,770.508,88.867,-1000.000,0.000
1718680477.157,-124.023,844.238,182.617,-75.195,0.000
1718680477.161,278.809,978.027,285.645,817.871,0.000
1718680477.165,194.336,971.680,329.590,542.969,0.000
1718680477.169,-292.969,639.648,81.543,-575.195,0.000
1718680477.172,-541.016,657.227,102.051,-1000.000,0.000
1718680477.176,-227.051,997.559,310.059,-215.332,0.000
1718680477.180,219.727,952.637,311.035,781.250,0.000
1718680477.184,209.473,678.711,159.180,665.527,0.000
1718680477.188,-280.762,805.176,196.289,-447.754,0.000
1718680477.192,-551.270,998.047,231.445,-1000.000,0.000
1718680477.196,-291.016,920.410,207.031,-373.047,0.000
1718680477.200,141.602,934.570,290.039,733.887,0.000
1718680477.204,196.777,941.406,327.148,729.980,0.000
1718680477.208,-222.168,977.539,249.023,-296.387,0.000
1718680477.212,-576.660,740.723,87.891,-1000.000,0.000
1718680477.215,-381.836,299.316,-42.480,-525.879,0.000
1718680477.219,49.805,535.645,121.582,598.145,0.000
1718680477.223,135.254,968.750,231.445,768.555,0.000
1718680477.227,-168.457,363.281,-119.629,-160.645,0.000
1718680477.231,-530.762,-731.934,-544.922,-971.680,0.000
1718680477.235,-431.152,-443.848,-402.832,-597.168,0.000
1718680477.239,20.020,-205.566,-330.566,545.898,0.000
1718680477.243,0.000,-398.438,0.000,851.074,0.000
1718680477.247,0.000,-363.281,0.000,33.203,0.000
1718680477.251,0.000,-674.805,0.000,-871.094,0.000
1718680477.255,0.000,-1000.000,0.000,-629.395,0.000
1718680477.258,0.000,-994.629,0.000,451.172,0.000
1718680477.262,0.000,-994.629,0.000,870.117,0.000
1718680477.266,0.000,-1000.000,0.000,163.086,0.000
1718680477.270,0.000,-1000.000,0.000,-847.656,0.000
1718680477.274,0.000,-1000.000,0.000,-651.367,0.000
1718680477.278,0.000,-1000.000,0.000,414.551,0.000
1718680477.282,0.000,-1000.000,0.000,903.809,0.000
1718680477.286,0.000,-1000.000,0.000,314.453,0.000
1718680477.290,-297.852,-1000.000,-999.512,-795.410,0.000
1718680477.294,-347.168,-1000.000,-1000.000,-878.418,0.000
1718680477.297,-15.625,-1000.000,-1000.000,98.145,0.000
1718680477.301,218.262,-1000.000,-1000.000,732.910,0.000
1718680477.305,64.941,-1000.000,-1000.000,215.820,0.000
1718680477.309,-267.578,-1000.000,-1000.000,-768.066,0.000
1718680477.313,-327.148,-1000.000,-1000.000,-911.133,0.000
1718680477.317,-66.895,-1000.000,-1000.000,-134.277,0.000
1718680477.321,132.812,-1000.000,-1000.000,520.020,0.000
1718680477.325,42.969,-1000.000,-1000.000,154.785,0.000
1718680477.329,-217.285,-1000.000,-1000.000,-766.113,0.000
1718680477.333,-313.477,-1000.000,-1000.000,-1000.000,0.000
1718680477.337,0.000,-1000.000,-1000.000,-426.758,0.000
1718680477.340,0.000,-1000.000,-1000.000,320.801,0.000
1718680477.344,0.000,-1000.000,-1000.000,104.980,0.000
1718680477.348,0.000,-1000.000,-1000.000,-744.629,0.000
1718680477.352,0.000,-1000.000,-1000.000,-1000.000,0.000
1718680477.356,0.000,-1000.000,-1000.000,-732.910,0.000
1718680477.360,0.000,-1000.000,-1000.000,-26.855,0.000
1718680477.364,0.000,-1000.000,-1000.000,-205.078,0.000
1718680477.368,0.000,-1000.000,-1000.000,-867.676,0.000
1718680477.372,0.000,-1000.000,-1000.000,-1000.000,0.000
1718680477.376,0.000,-1000.000,-1000.000,-932.129,0.000
1718680477.379,0.000,-1000.000,-1000.000,-339.355,0.000
1718680477.383,-341.797,-1000.000,-1000.000,-410.156,0.000
1718680477.387,-528.320,-1000.000,-1000.000,-940.918,0.000
1718680477.391,-646.484,-1000.000,-1000.000,-1000.000,0.000
1718680477.395,-594.727,-1000.000,-1000.000,-979.492,0.000
1718680477.399,-489.746,-1000.000,-1000.000,-558.105,0.000
1718680477.403,-473.145,-1000.000,-1000.000,-574.219,0.000
1718680477.407,-576.172,-1000.000,-1000.000,-967.285,0.000
1718680477.411,-698.242,-1000.000,-1000.000,-1000.000,0.000
1718680477.415,-713.867,-1000.000,-1000.000,-1000.000,0.000
1718680477.419,-587.402,-1000.000,-1000.000,-661.621,0.000
1718680477.422,-525.391,-1000.000,-1000.000,-655.273,0.000
1718680477.426,-618.652,-1000.000,-1000.000,-989.746,0.000
1718680477.430,-758.301,-1000.000,-1000.000,-998.047,0.000
1718680477.434,-716.309,-1000.000,-1000.000,-1000.000,0.000
1718680477.438,-600.586,-1000.000,-1000.000,-757.812,0.000
1718680477.442,-566.895,-1000.000,-1000.000,-697.266,0.000
1718680477.446,-629.883,-1000.000,-1000.000,-994.141,0.000
1718680477.450,-773.438,-1000.000,-1000.000,-995.117,0.000
1718680477.454,-769.043,-1000.000,-1000.000,-1000.000,0.000
1718680477.458,-712.402,-1000.000,-1000.000,-888.184,0.000
1718680477.462,-675.781,-1000.000,-1000.000,-758.301,0.000
1718680477.465,-669.434,-1000.000,-1000.000,-978.516,0.000
1718680477.469,-843.262,-1000.000,-1000.000,-1000.000,0.000
1718680477.473,-921.387,-1000.000,-1000.000,-1000.000,0.000
1718680477.477,-849.121,-1000.000,-1000.000,-928.223,0.000
1718680477.481,-820.312,-1000.000,-1000.000,-745.117,0.000
1718680477.485,-822.754,-1000.000,-1000.000,-956.543,0.000
1718680477.489,-893.555,-1000.000,-1000.000,-1000.000,0.000
1718680477.493,-929.688,-1000.000,-1000.000,-1000.000,0.000
1718680477.497,-872.559,-1000.000,-1000.000,-938.477,0.000
1718680477.501,-854.004,-1000.000,-1000.000,-691.895,0.000
1718680477.504,-910.645,-1000.000,-1000.000,-929.688,0.000
1718680477.508,-979.492,-1000.000,-1000.000,-1000.000,0.000
1718680477.512,-984.375,-1000.000,-1000.000,-1000.000,0.000
1718680477.516,-925.293,-1000.000,-1000.000,-966.797,0.000
1718680477.520,-924.316,-999.512,-993.652,-743.164,0.000
1718680477.524,-986.816,-1000.000,-989.258,-924.316,0.000
1718680477.528,-1000.000,-977.539,-992.188,-1000.000,0.000
1718680477.532,-997.559,-1000.000,-993.164,-1000.000,0.000
1718680477.536,-1000.000,-929.688,-956.543,-982.422,0.000
1718680477.540,-999.512,-205.566,-830.566,-634.766,0.000
1718680477.544,-994.141,-123.535,-887.695,-784.180,0.000
1718680477.548,-996.094,-53.711,-838.867,-1000.000,0.000
1718680477.551,-1000.000,730.957,-672.852,-1000.000,0.000
1718680477.555,-1000.000,945.312,-617.188,-988.281,0.000
1718680477.559,-1000.000,726.074,-643.555,-553.223,0.000
1718680477.563,-1000.000,865.234,-435.059,-676.758,0.000
1718680477.567,-999.512,999.512,-417.480,-1000.000,0.000
1718680477.571,0.000,913.574,-586.426,-995.605,0.000
1718680477.575,0.000,903.809,-511.719,-1000.000,0.000
1718680477.579,0.000,958.008,-328.125,-503.418,0.000
1718680477.583,0.000,978.516,-238.770,-411.133,0.000
1718680477.587,0.000,935.059,-337.402,-901.367,0.000
1718680477.590,0.000,883.301,-507.324,-1000.000,0.000
1718680477.594,0.000,950.684,-466.797,-1000.000,0.000
1718680477.598,0.000,970.215,-144.531,-453.613,0.000
1718680477.602,0.000,947.266,-71.777,-109.863,0.000
1718680477.606,0.000,953.613,-273.926,-663.574,0.000
1718680477.610,0.000,941.895,-378.906,-1000.000,0.000
1718680477.614,0.000,999.512,-348.633,-1000.000,0.000
1718680477.618,-852.051,845.703,-338.379,-398.438,0.000
1718680477.622,-861.328,681.641,-262.207,183.105,0.000
1718680477.626,-849.609,931.641,-121.582,-331.055,0.000
1718680477.630,-823.730,846.680,-446.289,-926.270,0.000
1718680477.633,-752.930,723.145,-601.074,-1000.000,0.000
1718680477.637,-733.887,808.105,-460.938,-389.648,0.000
1718680477.641,-784.668,937.500,-345.215,375.488,0.000
1718680477.645,-730.469,955.078,-380.371,24.414,0.000
1718680477.649,-596.191,347.168,-687.012,-830.078,0.000
1718680477.653,-513.184,320.312,-592.285,-1000.000,0.000
1718680477.657,-517.578,978.516,-343.262,-242.188,0.000
1718680477.661,-565.918,910.156,-359.375,660.645,0.000
1718680477.665,0.000,776.367,-344.727,388.184,0.000
1718680477.669,0.000,901.855,-454.102,-643.066,0.000
1718680477.673,0.000,937.500,-503.418,-973.633,0.000
1718680477.676,0.000,895.508,-439.941,-127.441,0.000
1718680477.680,0.000,878.418,-349.609,852.539,0.000
1718680477.684,0.000,861.328,-325.684,740.234,0.000
1718680477.688,0.000,711.914,-477.051,-299.316,0.000
1718680477.692,0.000,392.090,-594.238,-768.555,0.000
1718680477.696,0.000,-122.559,-643.555,-37.109,0.000
1718680477.700,0.000,606.445,-336.914,845.215,0.000
1718680477.704,0.000,941.895,-325.684,874.023,0.000
1718680477.708,0.000,399.414,-575.684,-23.438,0.000
1718680477.712,-112.793,196.777,-660.156,-714.844,0.000
1718680477.716,-112.793,427.246,-583.984,-138.672,0.000
1718680477.719,-251.465,527.832,-499.512,816.406,0.000
1718680477.723,-320.801,269.531,-561.523,999.512,0.000
1718680477.727,-221.680,393.066,-576.660,234.863,0.000
1718680477.731,-68.848,211.426,-669.922,-544.434,0.000
1718680477.735,-53.711,122.070,-658.203,-92.285,0.000
1718680477.739,-212.402,53.223,-660.645,784.668,0.000
1718680477.743,-336.426,236.816,-458.984,999.512,0.000
1718680477.747,-217.285,938.477,-328.613,511.719,0.000
1718680477.751,18.555,837.891,-481.445,-379.883,0.000
1718680477.755,55.664,602.539,-443.359,-47.363,0.000
1718680477.759,-131.836,875.977,0.000,793.945,0.000
1718680477.762,-262.207,958.984,0.000,999.512,0.000
1718680477.766,-198.730,888.184,0.000,763.184,0.000
1718680477.770,0.000,909.668,0.000,-156.738,0.000
1718680477.774,124.023,940.430,0.000,26.367,0.000
1718680477.778,-9.766,984.863,0.000,835.938,0.000
1718680477.782,-229.004,909.668,0.000,999.512,0.000
1718680477.786,-141.113,613.281,0.000,863.281,0.000
1718680477.790,151.367,854.492,0.000,-19.531,0.000
1718680477.794,260.742,999.512,0.000,15.137,0.000
1718680477.798,57.129,926.758,0.000,804.199,0.000
1718680477.801,-169.434,954.590,0.000,999.512,0.000
1718680477.805,0.000,967.285,-227.051,910.156,0.000
1718680477.809,0.000,963.379,-58.594,72.754,0.000
1718680477.813,0.000,962.891,-97.168,-40.039,0.000
1718680477.817,0.000,963.379,-158.691,748.047,0.000
1718680477.821,0.000,962.891,18.066,996.582,0.000
1718680477.825,0.000,965.820,170.898,945.801,0.000
1718680477.829,0.000,960.938,171.875,256.348,0.000
1718680477.833,0.000,960.449,15.625,-99.609,0.000
1718680477.837,0.000,965.332,136.230,567.871,0.000
1718680477.840,0.000,964.355,267.090,979.492,0.000
1718680477.844,0.000,964.355,287.109,968.262,0.000
1718680477.848,0.000,964.844,396.484,399.414,0.000
1718680477.852,498.047,964.844,730.957,-43.945,0.000
1718680477.856,365.234,964.844,722.168,447.754,0.000
1718680477.860,-53.711,972.168,717.285,937.012,0.000
1718680477.864,-121.582,931.152,701.660,999.512,0.000
1718680477.868,215.332,999.512,635.742,421.875,0.000
1718680477.872,569.824,895.996,440.430,-61.523,0.000
1718680477.876,518.066,202.148,236.816,472.168,0.000
1718680477.879,87.402,512.207,426.270,955.566,0.000
1718680477.883,-46.875,995.117,462.402,979.004,0.000
1718680477.887,340.332,867.188,362.793,709.961,0.000
1718680477.891,880.859,923.828,682.617,802.246,0.000
1718680477.895,984.375,977.051,925.781,999.512,0.000
1718680477.899,943.359,960.449,932.129,950.195,0.000
1718680477.903,969.238,964.844,966.797,966.309,0.000
1718680477.907,964.355,964.844,946.777,964.355,0.000
1718680477.911,963.867,964.844,911.621,964.355,0.000
1718680477.915,963.867,964.355,908.691,971.680,0.000
1718680477.919,963.867,964.355,931.152,933.105,0.000
1718680477.922,963.867,964.844,946.777,999.512,0.000
1718680477.926,964.355,964.844,924.316,925.293,0.000
1718680477.930,964.355,964.844,883.301,225.586,0.000
1718680477.934,964.355,964.355,866.699,575.684,0.000
1718680477.938,964.844,964.844,898.438,999.512,0.000
1718680477.942,954.590,964.355,928.711,952.148,0.000
1718680477.946,984.863,964.355,891.113,965.820,0.000
1718680477.950,881.836,964.355,755.371,-115.723,0.000
1718680477.954,728.516,967.285,666.992,-80.566,0.000
1718680477.958,890.137,961.426,769.531,897.461,0.000
1718680477.962,975.586,944.336,888.184,983.887,0.000
1718680477.965,972.168,993.652,763.184,970.215,0.000
1718680477.969,604.492,601.562,235.840,-173.828,0.000
1718680477.973,191.406,-70.312,-153.320,-421.387,0.000
1718680477.977,484.863,-102.051,73.730,784.180,0.000
1718680477.981,928.711,420.898,478.027,998.047,0.000
1718680477.985,971.680,896.484,484.863,988.281,0.000
1718680477.989,416.992,-138.184,-365.723,-103.516,0.000
1718680477.993,-103.027,-1000.000,-968.750,-730.469,0.000
1718680477.997,152.344,-947.754,-616.211,568.359,0.000
1718680478.001,756.836,-138.184,192.871,999.512,0.000
1718680478.005,826.660,-105.469,152.832,986.816,0.000
1718680478.008,227.051,-899.414,-709.961,42.480,0.000
1718680478.012,-305.176,-1000.000,-1000.000,-718.262,0.000
1718680478.016,-163.574,-976.074,-880.371,319.336,0.000
1718680478.020,458.008,-682.129,-220.703,953.125,0.000
1718680478.024,643.555,-817.871,-407.715,999.512,0.000
1718680478.028,102.539,-1000.000,-989.258,190.430,0.000
1718680478.032,-475.098,-980.469,-987.305,-962.891,0.000
1718680478.036,-353.027,-1000.000,-1000.000,-56.152,0.000
1718680478.040,286.133,-1000.000,-790.039,917.969,0.000
1718680478.044,558.105,-1000.000,-796.387,999.512,0.000
1718680478.048,119.141,-1000.000,-997.070,423.340,0.000
1718680478.051,-517.090,-1000.000,-1000.000,-902.344,0.000
1718680478.055,-486.816,-1000.000,-996.582,-336.426,0.000
1718680478.059,133.301,-1000.000,-1000.000,822.266,0.000
1718680478.063,492.188,-1000.000,-998.047,999.512,0.000
1718680478.067,203.613,-1000.000,-1000.000,582.031,0.000
1718680478.071,-409.668,-1000.000,-1000.000,-842.773,0.000
1718680478.075,-493.164,-1000.000,-1000.000,-569.336,0.000
1718680478.079,62.988,-1000.000,-1000.000,748.047,0.000
1718680478.083,484.375,-1000.000,-1000.000,999.512,0.000
1718680478.087,271.484,-1000.000,-1000.000,697.266,0.000
1718680478.091,-334.473,-1000.000,-1000.000,-775.391,0.000
1718680478.094,-454.590,-1000.000,-1000.000,-819.824,0.000
1718680478.098,43.945,-1000.000,-1000.000,618.164,0.000
1718680478.102,521.973,-1000.000,-1000.000,999.512,0.000
1718680478.106,348.633,-1000.000,-1000.000,755.371,0.000
1718680478.110,-332.031,-1000.000,-1000.000,-691.406,0.000
1718680478.114,-513.184,-1000.000,-1000.000,-1000.000,0.000
1718680478.118,-37.598,-1000.000,-1000.000,404.785,0.000
1718680478.122,457.520,-1000.000,-1000.000,999.512,0.000
1718680478.126,390.137,-1000.000,-1000.000,797.363,0.000
1718680478.130,-195.801,-1000.000,-1000.000,-597.656,0.000
1718680478.133,-527.832,-1000.000,-1000.000,-1000.000,0.000
1718680478.137,-164.551,-1000.000,-1000.000,108.887,0.000
1718680478.141,417.969,-1000.000,-1000.000,999.512,0.000
1718680478.145,429.688,-1000.000,-1000.000,856.445,0.000
1718680478.149,-111.816,-1000.000,-1000.000,-521.484,0.000
1718680478.153,-412.109,-1000.000,-1000.000,-1000.000,0.000
1718680478.157,-46.875,-1000.000,-1000.000,-120.605,0.000
1718680478.161,490.234,-1000.000,-1000.000,978.027,0.000
1718680478.165,494.141,-1000.000,-1000.000,913.574,0.000
1718680478.169,48.828,-1000.000,-1000.000,-426.270,0.000
1718680478.173,-282.715,-1000.000,-1000.000,-1000.000,0.000
1718680478.176,-29.785,-1000.000,-1000.000,-468.262,0.000
1718680478.180,555.664,-1000.000,-1000.000,814.941,0.000
1718680478.184,711.426,-1000.000,-1000.000,999.512,0.000
1718680478.188,339.355,-1000.000,-1000.000,-279.297,0.000
1718680478.192,-104.004,-1000.000,-1000.000,-1000.000,0.000
1718680478.196,-38.086,-1000.000,-1000.000,-636.230,0.000
1718680478.200,468.262,-1000.000,-1000.000,706.055,0.000
1718680478.204,698.242,-1000.000,-1000.000,999.512,0.000
1718680478.208,348.145,-1000.000,-1000.000,-66.895,0.000
1718680478.212,-78.125,-1000.000,-1000.000,-1000.000,0.000
1718680478.215,31.250,-1000.000,-1000.000,-786.621,0.000
1718680478.219,498.047,-1000.000,-1000.000,612.793,0.000
1718680478.223,745.605,-1000.000,-1000.000,999.512,0.000
1718680478.227,496.094,-1000.000,-1000.000,123.047,0.000
1718680478.231,59.082,-1000.000,-1000.000,-1000.000,0.000
1718680478.235,83.984,-1000.000,-1000.000,-901.855,0.000
1718680478.239,501.465,-1000.000,-995.117,500.000,0.000
1718680478.243,779.297,-1000.000,-992.188,999.512,0.000
1718680478.247,633.301,-1000.000,-998.047,349.121,0.000
1718680478.251,164.062,-1000.000,-1000.000,-906.738,0.000
1718680478.255,80.566,-1000.000,-1000.000,-995.117,0.000
1718680478.258,463.379,-1000.000,-984.863,382.812,0.000
1718680478.262,804.688,-1000.000,-967.773,999.512,0.000
1718680478.266,715.820,-1000.000,-993.164,462.402,0.000
1718680478.270,285.156,-1000.000,-997.559,-812.012,0.000
1718680478.274,0.000,-1000.000,0.000,-1000.000,0.000
1718680478.278,0.000,-1000.000,0.000,144.531,0.000
1718680478.282,0.000,-1000.000,0.000,999.512,0.000
1718680478.286,0.000,-1000.000,0.000,604.492,0.000
1718680478.290,0.000,-1000.000,0.000,-715.332,0.000
1718680478.294,0.000,-1000.000,0.000,-1000.000,0.000
1718680478.298,0.000,-1000.000,0.000,-151.367,0.000
1718680478.301,0.000,-1000.000,0.000,999.512,0.000
1718680478.305,0.000,-1000.000,0.000,721.680,0.000
1718680478.309,0.000,-969.238,0.000,-653.809,0.000
1718680478.313,0.000,-1000.000,0.000,-1000.000,0.000
1718680478.317,0.000,-957.520,0.000,-372.559,0.000
1718680478.321,160.645,-101.074,-1000.000,926.270,0.000
1718680478.325,502.930,544.434,-970.703,833.496,0.000
1718680478.329,849.609,286.133,-839.844,-579.590,0.000
1718680478.333,766.602,-113.770,-888.672,-1000.000,0.000
1718680478.337,394.043,529.785,-984.375,-562.012,0.000
1718680478.340,227.051,999.512,-1000.000,806.641,0.000
1718680478.344,442.871,938.477,-910.645,942.871,0.000
1718680478.348,780.273,960.938,-544.922,-464.355,0.000
1718680478.352,791.992,963.867,-570.312,-1000.000,0.000
1718680478.356,458.984,960.449,-909.668,-712.402,0.000
1718680478.360,199.707,964.844,-1000.000,686.523,0.000
1718680478.364,413.574,964.844,-653.809,999.512,0.000
1718680478.368,470.703,964.355,733.398,-293.945,0.000
1718680478.372,92.773,964.844,590.332,-1000.000,0.000
1718680478.376,149.414,964.844,710.938,-820.801,0.000
1718680478.380,519.531,964.844,836.914,573.242,0.000
1718680478.383,666.504,964.844,903.320,999.512,0.000
1718680478.387,428.223,964.844,789.062,-76.172,0.000
1718680478.391,-5.859,964.844,568.848,-1000.000,0.000
1718680478.395,16.113,964.844,645.508,-900.391,0.000
1718680478.399,434.570,964.844,796.387,486.816,0.000
1718680478.403,610.840,964.844,875.488,999.512,0.000
1718680478.407,385.742,964.844,784.180,178.711,0.000
1718680478.411,0.977,964.355,457.031,-981.445,0.000
1718680478.415,-58.105,964.355,460.449,-964.355,0.000
1718680478.419,251.953,964.844,770.996,390.137,0.000
1718680478.423,509.766,964.844,895.996,999.512,0.000
1718680478.426,395.508,964.355,763.184,458.984,0.000
1718680478.430,-11.230,964.844,440.918,-831.543,0.000
1718680478.434,-175.781,964.844,364.746,-1000.000,0.000
1718680478.438,110.840,964.844,671.875,233.398,0.000
1718680478.442,486.328,964.844,880.859,999.512,0.000
1718680478.446,414.062,964.844,781.738,614.746,0.000
1718680478.450,-7.812,964.844,544.434,-727.051,0.000
1718680478.454,-183.105,964.844,489.258,-1000.000,0.000
1718680478.458,84.473,964.844,663.086,14.648,0.000
1718680478.462,0.000,964.844,823.730,999.512,0.000
1718680478.465,0.000,964.355,868.652,758.789,0.000
1718680478.469,0.000,964.844,677.246,-618.652,0.000
1718680478.473,0.000,964.844,562.500,-1000.000,0.000
1718680478.477,0.000,964.844,772.461,-307.617,0.000
1718680478.481,0.000,964.844,890.137,942.383,0.000
1718680478.485,0.000,964.844,888.672,861.816,0.000
1718680478.489,0.000,964.844,778.320,-542.480,0.000
1718680478.493,0.000,964.844,713.867,-1000.000,0.000
1718680478.497,0.000,964.355,844.727,-567.383,0.000
1718680478.501,0.000,964.844,878.906,794.434,0.000
1718680478.505,0.000,964.844,885.742,939.941,0.000
1718680478.508,422.852,964.844,824.707,-450.195,0.000
1718680478.512,380.371,964.844,713.379,-1000.000,0.000
1718680478.516,111.816,964.844,769.531,-749.512,0.000
1718680478.520,-83.984,964.844,860.352,654.297,0.000
1718680478.524,8.789,964.844,880.859,999.512,0.000
1718680478.528,322.266,964.844,824.219,-237.305,0.000
1718680478.532,417.969,964.844,641.113,-1000.000,0.000
1718680478.536,210.449,964.844,637.695,-855.469,0.000
1718680478.540,-43.945,964.844,843.750,532.227,0.000
1718680478.543,-15.625,964.844,890.625,999.512,0.000
1718680478.547,248.535,964.355,788.086,-56.152,0.000
1718680478.551,392.090,964.844,661.133,-1000.000,0.000
1718680478.555,291.016,964.844,636.719,-954.590,0.000
1718680478.559,64.453,964.844,731.445,330.566,0.000
1718680478.563,11.230,964.844,769.531,999.512,0.000
1718680478.567,161.133,964.844,701.660,85.938,0.000
1718680478.571,302.246,964.844,608.398,-949.219,0.000
1718680478.575,306.152,965.332,533.691,-1000.000,0.000
1718680478.579,170.410,962.891,553.223,219.727,0.000
1718680478.582,75.684,960.449,630.371,968.750,0.000
1718680478.586,47.363,969.238,648.926,146.973,0.000
1718680478.590,184.570,955.566,491.699,-888.184,0.000
1718680478.594,319.824,939.453,379.395,-1000.000,0.000
1718680478.598,279.785,961.426,536.133,83.496,0.000
1718680478.602,-13.184,971.191,609.863,920.410,0.000
1718680478.606,78.125,951.172,502.930,236.816,0.000
1718680478.610,369.629,938.965,332.520,-826.660,0.000
1718680478.614,511.719,947.266,364.258,-1000.000,0.000
1718680478.618,317.383,988.770,496.582,-136.719,0.000
1718680478.622,36.621,929.199,463.379,927.246,0.000
1718680478.625,74.707,663.086,316.895,437.988,0.000
1718680478.629,337.402,860.352,385.254,-759.277,0.000
1718680478.633,489.746,999.512,416.992,-1000.000,0.000
1718680478.637,338.379,937.988,456.055,-268.555,0.000
1718680478.641,22.949,961.914,584.473,856.934,0.000
1718680478.645,16.113,965.820,630.859,530.762,0.000
1718680478.649,333.984,964.844,573.242,-695.312,0.000
1718680478.653,553.223,963.379,525.391,-1000.000,0.000
1718680478.657,401.855,962.891,601.562,-436.523,0.000
1718680478.661,39.062,964.844,714.355,816.406,0.000
1718680478.664,5.859,966.309,741.699,666.016,0.000
1718680478.668,327.148,958.984,602.051,-577.637,0.000
1718680478.672,550.781,958.496,569.824,-1000.000,0.000
1718680478.676,455.078,965.820,705.078,-561.035,0.000
1718680478.680,132.324,964.355,747.070,730.469,0.000
1718680478.684,50.293,964.844,701.172,832.031,0.000
1718680478.688,260.742,964.844,663.574,-358.887,0.000
1718680478.692,527.344,965.332,616.211,-1000.000,0.000
1718680478.696,0.000,964.355,586.914,-606.445,0.000
1718680478.700,0.000,963.867,637.207,678.711,0.000
1718680478.704,0.000,964.844,697.754,955.566,0.000
1718680478.707,0.000,965.332,633.789,-95.703,0.000
1718680478.711,0.000,963.379,521.973,-1000.000,0.000
1718680478.715,0.000,961.426,496.094,-688.477,0.000
1718680478.719,0.000,946.289,583.984,598.145,0.000
1718680478.723,0.000,993.652,687.988,999.512,0.000
1718680478.727,0.000,904.785,555.176,112.793,0.000
1718680478.731,0.000,759.766,343.262,-940.918,0.000
1718680478.735,0.000,941.895,497.559,-825.195,0.000
1718680478.739,0.000,983.887,594.238,476.562,0.000
1718680478.743,517.090,936.523,546.387,999.512,0.000
1718680478.746,170.410,947.266,515.137,247.070,0.000
1718680478.750,25.879,959.961,429.688,-882.324,0.000
1718680478.754,254.395,948.242,384.277,-924.805,0.000
1718680478.758,540.039,954.102,463.379,321.777,0.000
1718680478.762,526.855,946.777,503.418,999.512,0.000
1718680478.766,161.133,945.312,472.656,351.074,0.000
1718680478.770,-64.453,986.816,336.426,-819.824,0.000
1718680478.774,122.070,512.695,169.922,-998.535,0.000
1718680478.778,479.004,509.277,333.984,83.008,0.000
1718680478.782,525.879,999.512,502.930,979.492,0.000
1718680478.785,213.867,893.066,365.234,505.859,0.000
1718680478.789,276.855,503.418,0.000,-729.004,0.000
1718680478.793,473.633,638.184,0.000,-1000.000,0.000
1718680478.797,263.672,913.574,0.000,-108.887,0.000
1718680478.801,-120.117,895.508,0.000,932.129,0.000
1718680478.805,-142.578,832.031,0.000,614.258,0.000
1718680478.809,187.500,593.262,0.000,-638.672,0.000
1718680478.813,450.684,458.496,0.000,-1000.000,0.000
1718680478.817,310.547,451.172,0.000,-225.098,0.000
1718680478.821,-81.543,227.539,0.000,880.371,0.000
1718680478.825,-188.477,779.785,0.000,674.805,0.000
1718680478.828,100.586,999.512,0.000,-527.832,0.000
1718680478.832,340.332,730.469,0.000,-1000.000,0.000
1718680478.836,209.961,832.031,316.406,-529.297,0.000
1718680478.840,-110.840,985.840,527.344,759.277,0.000
1718680478.844,-133.789,957.520,500.000,903.809,0.000
1718680478.848,99.121,806.152,308.105,-303.223,0.000
1718680478.852,263.184,737.793,194.824,-1000.000,0.000
1718680478.856,179.688,693.848,225.586,-567.871,0.000
1718680478.860,-95.703,841.309,371.094,704.590,0.000
1718680478.864,-132.324,812.500,407.227,999.512,0.000
1718680478.868,54.199,658.203,312.012,-66.895,0.000
1718680478.871,218.262,660.645,138.184,-1000.000,0.000
1718680478.875,178.223,672.852,145.996,-754.395,0.000
1718680478.879,-99.609,781.738,299.316,590.820,0.000
1718680478.883,-179.199,917.480,451.172,999.512,0.000
1718680478.887,12.695,999.512,406.738,179.688,0.000
1718680478.891,162.109,615.234,51.270,-958.984,0.000
1718680478.895,79.590,193.848,-88.379,-924.316,0.000
1718680478.899,-152.832,645.020,253.418,422.363,0.000
1718680478.903,-199.219,999.512,435.059,999.512,0.000
1718680478.907,-14.648,773.926,271.973,373.047,0.000
1718680478.911,156.250,-198.242,-268.555,-858.398,0.000
1718680478.914,68.848,79.590,-42.480,-1000.000,0.000
1718680478.918,-165.527,813.477,339.355,245.605,0.000
1718680478.922,-234.375,910.156,381.836,999.512,0.000
1718680478.926,-89.355,928.223,384.277,525.391,0.000
1718680478.930,81.543,601.562,118.652,-769.043,0.000
1718680478.934,27.344,457.520,65.918,-1000.000,0.000
1718680478.938,-177.734,499.023,212.891,83.008,0.000
1718680478.942,-265.625,719.727,386.719,999.512,0.000
1718680478.946,-145.996,985.840,441.895,649.414,0.000
1718680478.950,28.809,692.383,157.715,-667.480,0.000
1718680478.953,-9.766,-207.520,-259.766,-1000.000,0.000
1718680478.957,-267.578,-156.738,-70.312,-178.711,0.000
1718680478.961,-401.855,892.090,465.820,945.312,0.000
1718680478.965,-237.305,971.680,404.785,760.742,0.000
1718680478.969,-77.637,503.906,53.223,-574.707,0.000
1718680478.973,-119.141,301.270,-47.363,-1000.000,0.000
1718680478.977,0.000,323.242,61.035,-397.949,0.000
1718680478.981,0.000,660.156,296.875,854.492,0.000
1718680478.985,0.000,729.004,303.223,870.117,0.000
1718680478.989,0.000,315.918,-21.973,-472.656,0.000
1718680478.993,0.000,-50.781,-324.707,-1000.000,0.000
1718680478.996,0.000,-496.582,-448.242,-556.641,0.000
1718680479.000,0.000,-708.496,-269.531,761.719,0.000
1718680479.004,0.000,293.457,228.516,934.570,0.000
1718680479.008,0.000,580.566,50.293,-321.289,0.000
1718680479.012,0.000,-355.957,-526.855,-1000.000,0.000
1718680479.016,0.000,-582.520,-484.375,-757.812,0.000
1718680479.020,0.000,147.461,40.527,626.465,0.000
1718680479.024,-406.250,617.188,234.375,999.512,0.000
1718680479.028,-209.473,176.758,-129.883,-106.934,0.000
1718680479.032,-216.797,-540.527,-555.664,-1000.000,0.000
1718680479.036,-332.520,-848.633,-618.164,-864.746,0.000
1718680479.039,-488.770,-281.738,-189.453,506.348,0.000
1718680479.043,-389.160,-90.332,-21.973,999.512,0.000
1718680479.047,-206.055,-401.855,-254.883,151.367,0.000
1718680479.051,-219.727,-583.984,-510.742,-966.309,0.000
1718680479.055,-350.098,-799.805,-665.039,-961.426,0.000
1718680479.059,-458.984,-908.691,-580.566,372.559,0.000
1718680479.063,-402.832,-170.410,-33.203,999.512,0.000
1718680479.067,-218.750,285.645,1.465,303.223,0.000
1718680479.071,0.000,-444.336,0.000,-874.023,0.000
1718680479.075,0.000,-980.957,0.000,-1000.000,0.000
1718680479.079,0.000,-688.477,0.000,170.410,0.000
1718680479.082,0.000,21.973,0.000,999.512,0.000
1718680479.086,0.000,37.109,0.000,496.094,0.000
1718680479.090,0.000,-799.805,0.000,-783.691,0.000
1718680479.094,0.000,-1000.000,0.000,-1000.000,0.000
1718680479.098,0.000,-693.848,0.000,0.488,0.000
1718680479.102,0.000,-428.223,0.000,999.512,0.000
1718680479.106,0.000,-811.035,0.000,675.293,0.000
1718680479.110,0.000,-795.410,0.000,-691.895,0.000
1718680479.114,0.000,-883.789,0.000,-1000.000,0.000
1718680479.118,-134.277,-1000.000,-644.043,-167.480,0.000
1718680479.121,-266.113,-371.582,-221.680,964.844,0.000
1718680479.125,-423.340,51.270,-36.133,780.762,0.000
1718680479.129,-349.609,-612.305,-544.922,-588.867,0.000
1718680479.133,-161.133,-1000.000,-839.844,-1000.000,0.000
1718680479.137,-77.148,-984.863,-685.547,-268.555,0.000
1718680479.141,-208.496,-497.559,-223.145,895.996,0.000
1718680479.145,-395.508,163.086,63.477,885.254,0.000
1718680479.149,-351.562,-520.508,-583.496,-412.598,0.000
1718680479.153,-160.156,-1000.000,-810.547,-1000.000,0.000
1718680479.157,-78.613,-715.820,-535.645,-519.531,0.000
1718680479.160,-175.293,-237.305,-214.355,785.645,0.000
1718680479.164,-168.457,-93.262,-41.016,960.449,0.000
1718680479.168,-30.762,-157.227,-303.223,-289.551,0.000
1718680479.172,-109.375,-521.973,-597.168,-1000.000,0.000
1718680479.176,-276.367,-851.562,-660.156,-698.242,0.000
1718680479.180,-337.402,-534.668,-241.699,666.016,0.000
1718680479.184,-172.852,-9.766,65.918,999.512,0.000
1718680479.188,-28.320,-191.895,-245.605,-42.480,0.000
1718680479.192,-93.750,-786.133,-636.230,-1000.000,0.000
1718680479.196,-234.863,-1000.000,-772.949,-790.527,0.000
1718680479.200,-354.980,-279.297,-241.699,567.871,0.000
1718680479.203,-225.098,541.992,214.844,999.512,0.000
1718680479.207,-47.363,267.090,-115.234,165.039,0.000
1718680479.211,-79.102,-485.352,-554.199,-968.750,0.000
1718680479.215,-238.281,-615.234,-573.242,-931.152,0.000
1718680479.219,-345.215,-289.551,-286.133,412.109,0.000
1718680479.223,-207.520,-100.586,-2.930,999.512,0.000
1718680479.227,-59.082,-38.574,-33.691,377.441,0.000
1718680479.231,-104.004,-465.332,-504.883,-865.234,0.000
1718680479.235,-214.844,-823.242,-649.902,-1000.000,0.000
1718680479.239,-319.824,-839.355,-516.602,275.391,0.000
1718680479.243,-283.691,-311.523,-114.258,999.512,0.000
1718680479.246,-137.207,542.480,163.574,517.578,0.000
1718680479.250,-60.547,127.441,-362.305,-775.879,0.000
1718680479.254,-158.203,-637.695,-639.160,-1000.000,0.000
1718680479.258,-340.332,-323.242,-331.543,42.480,0.000
1718680479.262,-336.426,466.309,112.305,999.512,0.000
1718680479.266,-147.949,550.781,95.703,636.230,0.000
1718680479.270,-50.781,-74.219,-371.094,-698.242,0.000
1718680479.274,-149.414,-397.949,-585.449,-1000.000,0.000
1718680479.278,-303.711,-372.070,-386.719,-59.570,0.000
1718680479.282,-299.805,-122.559,-70.801,995.605,0.000
1718680479.285,-122.070,-354.980,-245.117,760.254,0.000
1718680479.289,-64.453,-131.836,-371.094,-596.191,0.000
1718680479.293,-154.785,-66.895,-489.746,-1000.000,0.000
1718680479.297,-283.203,-345.215,-443.359,-280.273,0.000
1718680479.301,-345.215,152.344,50.781,893.066,0.000
1718680479.305,0.000,665.527,208.496,831.543,0.000
1718680479.309,0.000,330.566,-199.707,-470.215,0.000
1718680479.313,0.000,-553.711,-643.555,-1000.000,0.000
1718680479.317,0.000,-833.984,-570.312,-491.211,0.000
1718680479.321,0.000,-140.137,-111.328,791.016,0.000
1718680479.325,0.000,90.332,3.418,937.988,0.000
1718680479.328,0.000,-544.434,-517.090,-310.547,0.000
1718680479.332,0.000,-900.879,-707.520,-1000.000,0.000
1718680479.336,0.000,-684.082,-553.711,-647.949,0.000
1718680479.340,0.000,-418.457,-300.781,695.312,0.000
1718680479.344,0.000,-172.852,-84.473,999.512,0.000
1718680479.348,0.000,-12.695,-213.867,-136.719,0.000
1718680479.352,-229.492,-312.988,-541.992,-1000.000,0.000
1718680479.356,-70.312,-715.332,-644.043,-797.852,0.000
1718680479.360,-95.215,-598.145,-350.586,572.266,0.000
1718680479.364,-265.137,69.336,-24.902,999.512,0.000
1718680479.367,-325.195,31.250,-229.980,33.203,0.000
1718680479.371,-167.480,-828.613,-751.465,-994.141,0.000
1718680479.375,-35.645,-1000.000,-914.551,-868.164,0.000
1718680479.379,-102.051,-553.223,-481.445,440.918,0.000
1718680479.383,-239.258,-0.977,-222.168,999.512,0.000
1718680479.387,-338.379,-186.523,-458.008,252.441,0.000
1718680479.391,-219.238,-821.777,-713.379,-898.438,0.000
1718680479.395,-75.684,-992.188,-770.996,-988.281,0.000
1718680479.399,-83.008,-851.562,-595.703,261.719,0.000
1718680479.403,-165.039,-326.172,-270.020,999.512,0.000
1718680479.406,-290.039,-45.898,-218.262,435.059,0.000
1718680479.410,-251.465,-656.738,-645.020,-814.453,0.000
1718680479.414,-90.820,-899.414,-752.441,-1000.000,0.000
1718680479.418,-41.016,-895.508,-637.207,99.121,0.000
1718680479.422,-131.348,-498.047,-387.207,999.512,0.000
1718680479.426,-279.297,165.039,-214.844,548.828,0.000
1718680479.430,-238.770,-257.812,-603.516,-741.211,0.000
1718680479.434,-53.711,-953.613,-902.344,-1000.000,0.000
1718680479.438,-34.180,-679.199,-583.496,-117.188,0.000
1718680479.442,-169.922,118.164,-181.152,972.656,0.000
1718680479.446,-88.867,278.320,-98.633,677.734,0.000
1718680479.449,4.395,-295.410,-447.266,-639.160,0.000
1718680479.453,-93.750,-699.219,-722.656,-1000.000,0.000
1718680479.457,-229.980,-473.145,-467.285,-301.270,0.000
1718680479.461,-231.934,114.258,-51.270,889.160,0.000
1718680479.465,-124.512,23.438,-152.344,785.645,0.000
1718680479.469,-50.781,-330.078,-494.141,-533.691,0.000
1718680479.473,-83.496,-403.809,-586.914,-1000.000,0.000
1718680479.477,-153.320,-577.148,-591.797,-403.809,0.000
1718680479.481,-174.316,-776.367,-451.660,832.520,0.000
1718680479.485,-108.887,141.113,19.531,870.117,0.000
1718680479.488,-33.691,220.703,-242.188,-395.996,0.000
1718680479.492,0.000,-776.855,0.000,-1000.000,0.000
1718680479.496,0.000,-758.301,0.000,-615.723,0.000
1718680479.500,0.000,-81.055,0.000,712.891,0.000
1718680479.504,0.000,139.648,0.000,999.512,0.000
1718680479.508,0.000,-301.270,0.000,-126.953,0.000
1718680479.512,0.000,-939.453,0.000,-1000.000,0.000
1718680479.516,0.000,-1000.000,0.000,-733.398,0.000
1718680479.520,0.000,-666.016,0.000,626.465,0.000
1718680479.524,0.000,-590.820,0.000,999.512,0.000
1718680479.528,0.000,-758.789,0.000,99.609,0.000
1718680479.531,0.000,-862.305,0.000,-1000.000,0.000
1718680479.535,0.000,-1000.000,0.000,-871.582,0.000
1718680479.539,-229.004,-812.012,-473.633,502.930,0.000
1718680479.543,-38.086,-60.547,-181.641,999.512,0.000
1718680479.547,54.199,-60.059,-397.949,303.711,0.000
1718680479.551,-83.496,-847.168,-824.707,-906.250,0.000
1718680479.555,-259.277,-1000.000,-888.184,-891.113,0.000
1718680479.559,-255.371,-952.148,-651.367,387.207,0.000
1718680479.563,-42.480,-467.285,-342.773,999.512,0.000
1718680479.567,74.219,-282.715,-474.121,474.121,0.000
1718680479.571,-46.875,-893.066,-922.852,-823.242,0.000
1718680479.574,-233.887,-1000.000,-918.457,-1000.000,0.000
1718680479.578,-217.773,-762.695,-600.586,242.676,0.000
1718680479.582,17.578,-299.805,-366.699,999.512,0.000
1718680479.586,116.211,-336.914,-437.012,603.516,0.000
1718680479.590,-62.988,-830.566,-771.973,-727.539,0.000
1718680479.594,-247.070,-1000.000,-916.992,-1000.000,0.000
1718680479.598,-201.172,-958.984,-717.773,36.133,0.000
1718680479.602,15.625,-372.070,-346.191,999.512,0.000
1718680479.606,110.840,-382.812,-394.043,678.223,0.000
1718680479.610,-47.852,-919.434,-768.066,-639.160,0.000
1718680479.613,-197.266,-1000.000,-982.422,-1000.000,0.000
1718680479.617,-219.727,-889.160,-709.473,-244.141,0.000
1718680479.621,-92.773,-74.219,-130.859,936.035,0.000
