timestamps,TP9,AF7,AF8,TP10,Right AUX
1718676103.562,-29.785,-54.688,-118.652,28.320,0.000
1718676103.566,2.930,-17.090,106.934,-20.996,0.000
1718676103.570,-3.418,-20.996,71.289,-58.594,0.000
1718676103.574,-30.762,-40.527,-77.637,-54.688,0.000
1718676103.578,-39.062,-23.926,60.059,0.000,0.000
1718676103.581,-22.949,-23.926,74.707,24.902,0.000
1718676103.585,1.465,-27.344,18.555,-14.160,0.000
1718676103.589,1.953,-44.922,-224.609,-53.711,0.000
1718676103.593,-17.090,-48.340,-243.652,-49.805,0.000
1718676103.597,-41.992,3.418,124.023,-7.812,0.000
1718676103.601,-38.086,1.953,130.371,26.367,0.000
1718676103.605,-5.371,-27.344,9.766,-10.254,0.000
1718676103.607,6.836,-19.531,42.969,-68.848,0.000
1718676103.611,-28.320,-12.207,66.895,-52.734,0.000
1718676103.615,-64.453,-13.184,75.195,6.348,0.000
1718676103.619,-44.922,-16.113,81.543,35.645,0.000
1718676103.623,0.488,-7.812,156.250,20.508,0.000
1718676103.627,6.348,-27.344,-5.859,-37.109,0.000
1718676103.631,-15.625,-45.898,-252.441,-55.664,0.000
1718676103.635,-38.574,-58.594,-321.289,0.000,0.000
1718676103.638,-38.574,-10.254,68.848,33.203,0.000
1718676103.642,-9.766,2.930,174.805,2.441,0.000
1718676103.646,13.184,-23.926,-19.043,-53.711,0.000
1718676103.650,-10.254,-29.785,-121.094,-79.102,0.000
1718676103.654,-18.555,-22.949,12.207,-33.691,0.000
1718676103.658,20.020,-6.348,191.895,29.785,0.000
1718676103.662,15.625,-16.113,150.391,22.461,0.000
1718676103.666,-41.504,-30.273,97.656,-47.363,0.000
1718676103.670,-69.824,-39.062,-148.926,-102.051,0.000
1718676103.674,-32.715,-45.410,-328.613,-58.594,0.000
1718676103.678,23.438,-29.785,-44.434,45.410,0.000
1718676103.682,20.996,-10.742,130.859,47.363,0.000
1718676103.686,-39.551,-5.371,146.484,-46.387,0.000
1718676103.689,-83.496,-35.645,-226.074,-113.770,0.000
1718676103.693,-61.523,-57.617,-508.301,-83.008,0.000
1718676103.697,15.137,-23.926,-132.324,20.020,0.000
1718676103.701,31.738,16.113,280.762,42.969,0.000
1718676103.705,-34.180,-1.953,152.832,-37.598,0.000
1718676103.709,-97.656,-59.570,-413.086,-130.371,0.000
1718676103.713,-72.754,-51.758,-486.328,-96.680,0.000
1718676103.717,9.766,0.977,0.488,24.414,0.000
1718676103.721,34.668,3.906,223.633,69.336,0.000
1718676103.725,-16.602,-49.316,-158.203,-5.371,0.000
1718676103.729,-91.309,-57.129,-433.105,-122.070,0.000
1718676103.732,-77.637,-37.109,-445.801,-99.121,0.000
1718676103.736,-2.441,-16.113,-137.207,16.602,0.000
1718676103.740,17.578,9.277,295.410,57.129,0.000
1718676103.744,-34.668,-8.301,247.559,-8.301,0.000
1718676103.749,-111.328,-59.570,-305.176,-124.512,0.000
1718676103.753,-107.422,-77.637,-639.648,-126.465,0.000
1718676103.756,-26.367,-46.875,-315.918,-5.859,0.000
1718676103.760,14.648,11.230,253.906,73.730,0.000
1718676103.764,-23.438,9.277,261.230,16.602,0.000
1718676103.768,-88.867,-70.312,-427.734,-99.609,0.000
1718676103.772,-104.004,-89.355,-684.082,-118.164,0.000
1718676103.776,-44.434,-20.508,-210.938,-17.578,0.000
1718676103.780,22.949,26.367,242.676,77.637,0.000
1718676103.784,-4.883,-5.371,163.086,35.156,0.000
1718676103.788,-89.844,-62.012,-350.098,-94.727,0.000
1718676103.792,-107.422,-77.148,-645.020,-128.418,0.000
1718676103.796,-47.363,-40.527,-360.840,-36.621,0.000
1718676103.800,23.438,-15.137,20.508,75.684,0.000
1718676103.804,3.418,6.836,254.883,58.105,0.000
1718676103.808,-79.102,-23.438,-89.844,-86.426,0.000
1718676103.812,-113.770,-76.660,-563.965,-157.227,0.000
1718676103.816,-58.105,-64.941,-459.473,-64.941,0.000
1718676103.820,20.508,-6.836,98.145,53.711,0.000
1718676103.824,5.859,20.508,331.055,33.691,0.000
1718676103.827,-72.266,-23.926,-48.340,-80.566,0.000
1718676103.831,-114.746,-78.613,-518.066,-125.977,0.000
1718676103.835,-67.871,-41.504,-363.281,-56.641,0.000
1718676103.839,17.090,20.996,195.312,54.688,0.000
1718676103.843,18.066,19.043,338.867,59.082,0.000
1718676103.847,-59.082,-24.414,64.453,-60.059,0.000
1718676103.851,-123.047,-52.246,-380.859,-143.066,0.000
1718676103.855,-78.125,-41.504,-393.066,-84.473,0.000
1718676103.859,15.137,-2.441,64.941,42.480,0.000
1718676103.863,17.578,8.301,266.113,51.270,0.000
1718676103.867,-56.641,-5.371,133.301,-65.430,0.000
1718676103.871,-113.770,-40.039,-324.219,-158.691,0.000
1718676103.875,-84.473,-77.148,-621.582,-105.469,0.000
1718676103.879,-2.930,-30.762,-176.270,18.555,0.000
1718676103.882,21.484,39.062,382.812,45.898,0.000
1718676103.886,-39.062,-4.883,165.039,-38.574,0.000
1718676103.891,-110.840,-67.383,-463.867,-150.879,0.000
1718676103.895,-102.539,-57.617,-441.895,-138.672,0.000
1718676103.898,-13.184,3.418,143.555,-13.184,0.000
1718676103.902,30.273,26.855,396.973,38.086,0.000
1718676103.906,-38.086,-21.484,77.637,-59.082,0.000
1718676103.910,-104.980,-70.801,-416.016,-157.715,0.000
1718676103.914,-100.586,-62.988,-467.773,-138.184,0.000
1718676103.918,-32.715,-17.578,-51.270,-22.461,0.000
1718676103.922,24.902,-21.484,166.016,65.430,0.000
1718676103.926,-22.949,-5.859,270.508,0.000,0.000
1718676103.930,-110.840,-43.945,-190.430,-129.883,0.000
1718676103.934,-108.398,-76.172,-544.434,-136.719,0.000
1718676103.938,0.000,-20.996,-90.332,-24.414,0.000
1718676103.942,0.000,27.832,404.785,58.105,0.000
1718676103.946,0.000,24.902,370.605,1.465,0.000
1718676103.950,0.000,-36.621,-167.969,-119.629,0.000
1718676103.954,0.000,-64.941,-456.543,-129.395,0.000
1718676103.958,0.000,-37.109,-240.234,-8.789,0.000
1718676103.962,0.000,19.043,268.066,72.266,0.000
1718676103.966,0.000,2.441,264.648,24.414,0.000
1718676103.970,0.000,-58.594,-189.941,-89.844,0.000
1718676103.973,0.000,-44.434,-355.957,-139.160,0.000
1718676103.977,0.000,-27.832,-253.906,-46.387,0.000
1718676103.981,0.000,1.465,199.219,60.059,0.000
1718676103.985,-25.391,20.996,383.301,31.250,0.000
1718676103.989,36.621,-27.832,-43.945,-87.402,0.000
1718676103.993,1.953,-67.383,-435.059,-142.578,0.000
1718676103.997,-83.496,-49.316,-318.848,-73.730,0.000
1718676104.000,-95.215,20.996,245.117,56.152,0.000
1718676104.004,-34.180,24.902,347.656,48.340,0.000
1718676104.008,32.227,-41.016,-49.805,-73.730,0.000
1718676104.012,14.648,-81.055,-459.961,-136.230,0.000
1718676104.016,-76.660,-37.598,-307.129,-68.359,0.000
1718676104.020,-102.539,20.508,229.980,69.336,0.000
1718676104.024,-33.203,18.555,385.742,81.055,0.000
1718676104.028,35.156,-19.531,145.020,-35.156,0.000
1718676104.032,-113.770,-54.199,-336.426,-138.672,0.000
1718676104.036,-74.219,-46.387,-373.535,-97.168,0.000
1718676104.040,21.973,-13.184,98.633,45.898,0.000
1718676104.043,34.180,-5.859,285.156,79.102,0.000
1718676104.047,-40.527,-11.230,141.602,-38.574,0.000
1718676104.051,-106.934,-61.523,-394.531,-145.020,0.000
1718676104.055,-81.543,-77.148,-565.430,-93.262,0.000
1718676104.059,12.695,-6.836,-29.297,50.293,0.000
1718676104.063,52.246,46.387,426.758,102.539,0.000
1718676104.067,-2.930,16.602,288.574,10.254,0.000
1718676104.071,-98.145,-80.078,-479.980,-107.422,0.000
1718676104.075,-96.191,-88.379,-585.449,-83.984,0.000
1718676104.079,0.000,6.348,78.125,45.410,0.000
1718676104.082,0.000,38.086,395.996,108.398,0.000
1718676104.086,0.000,-10.742,191.406,29.785,0.000
1718676104.090,0.000,-56.641,-245.117,-107.910,0.000
1718676104.094,0.000,-57.617,-427.734,-106.445,0.000
1718676104.098,0.000,-38.086,-191.406,26.367,0.000
1718676104.102,0.000,-32.227,59.082,108.398,0.000
1718676104.106,0.000,-1.953,215.332,44.922,0.000
1718676104.110,0.000,-20.508,-112.793,-97.168,0.000
1718676104.114,0.000,-65.430,-512.207,-108.398,0.000
1718676104.118,0.000,-27.832,-164.062,21.973,0.000
1718676104.122,0.000,40.039,390.137,109.375,0.000
1718676104.125,4.395,33.203,369.629,36.621,0.000
1718676104.129,-81.055,-32.715,-168.945,-125.488,0.000
1718676104.133,-92.773,-58.594,-509.277,-155.762,0.000
1718676104.137,-30.273,-17.090,-210.449,-32.715,0.000
1718676104.141,32.715,34.180,324.219,73.730,0.000
1718676104.145,13.672,8.789,268.066,39.062,0.000
1718676104.149,-77.148,-42.480,-193.359,-85.938,0.000
1718676104.153,-104.004,-52.734,-469.727,-136.230,0.000
1718676104.157,-36.133,-28.320,-294.434,-45.410,0.000
1718676104.160,40.527,-2.930,182.129,77.637,0.000
1718676104.164,21.973,-0.488,311.035,51.270,0.000
1718676104.168,-72.266,-28.809,-63.477,-85.938,0.000
1718676104.173,-115.234,-64.941,-499.023,-156.250,0.000
1718676104.177,-61.035,-55.664,-485.352,-79.590,0.000
1718676104.181,21.973,11.719,173.340,60.059,0.000
1718676104.185,20.996,36.621,427.734,59.570,0.000
1718676104.189,-63.965,-21.484,60.059,-60.547,0.000
1718676104.193,-120.117,-95.215,-525.391,-142.090,0.000
1718676104.197,-75.684,-67.383,-443.848,-83.496,0.000
1718676104.201,11.230,20.020,247.559,49.316,0.000
1718676104.204,26.367,23.438,358.887,71.777,0.000
1718676104.208,-46.875,-55.176,-175.293,-16.113,0.000
1718676104.212,-122.070,-65.430,-446.777,-134.766,0.000
1718676104.216,-78.613,-53.711,-445.312,-102.539,0.000
1718676104.220,19.531,-20.996,-47.363,52.246,0.000
1718676104.224,32.715,24.902,405.273,92.773,0.000
1718676104.228,-31.250,-0.488,242.676,-13.184,0.000
1718676104.232,-94.727,-53.223,-339.355,-133.301,0.000
1718676104.236,-72.754,-68.359,-555.176,-93.750,0.000
1718676104.240,12.695,-26.367,-120.117,45.898,0.000
1718676104.244,52.246,31.250,346.680,84.961,0.000
1718676104.248,-4.395,20.508,273.438,-5.371,0.000
1718676104.252,-85.938,-60.547,-418.457,-119.629,0.000
1718676104.256,-76.660,-60.547,-535.156,-120.605,0.000
1718676104.260,10.742,-1.465,-33.691,8.301,0.000
1718676104.263,46.387,18.555,285.645,98.633,0.000
1718676104.268,-9.277,-10.742,192.383,28.809,0.000
1718676104.272,-101.562,-51.270,-261.230,-107.422,0.000
1718676104.275,-100.098,-65.430,-521.484,-111.816,0.000
1718676104.279,-5.859,-22.461,-146.973,1.465,0.000
1718676104.283,55.176,-7.324,175.293,75.684,0.000
1718676104.287,13.672,-9.277,204.590,20.508,0.000
1718676104.291,-83.984,-27.832,-137.695,-117.676,0.000
1718676104.295,-92.285,-63.965,-502.441,-143.066,0.000
1718676104.299,-3.906,-70.801,-416.992,-25.879,0.000
1718676104.303,47.363,17.578,263.184,67.383,0.000
1718676104.307,6.348,40.527,431.641,21.484,0.000
1718676104.311,-69.824,-33.203,-150.391,-103.516,0.000
1718676104.315,-94.238,-68.848,-507.324,-140.137,0.000
1718676104.319,-31.250,-36.133,-201.172,-36.133,0.000
1718676104.322,43.457,24.902,340.332,83.496,0.000
1718676104.326,17.578,8.301,342.773,49.805,0.000
1718676104.330,-72.266,-42.480,-59.082,-80.566,0.000
1718676104.334,-107.422,-76.172,-527.832,-143.555,0.000
1718676104.338,-41.504,-53.223,-388.184,-59.570,0.000
1718676104.342,44.922,-9.277,157.715,82.031,0.000
1718676104.346,30.762,1.953,288.086,67.383,0.000
1718676104.350,-55.176,0.977,93.750,-75.195,0.000
1718676104.354,-105.957,-59.082,-440.430,-163.086,0.000
1718676104.358,-70.312,-68.848,-507.324,-89.844,0.000
1718676104.361,15.137,5.859,209.961,51.758,0.000
1718676104.365,19.043,28.320,442.383,55.176,0.000
1718676104.369,-57.129,-21.484,86.914,-52.734,0.000
1718676104.373,-117.188,-79.102,-436.523,-140.137,0.000
1718676104.377,-85.449,-65.430,-435.059,-91.797,0.000
1718676104.381,13.672,-13.672,61.523,52.246,0.000
1718676104.385,38.574,4.883,293.945,75.684,0.000
1718676104.389,-46.387,-41.504,-13.672,-44.922,0.000
1718676104.393,-120.605,-72.266,-433.105,-150.391,0.000
1718676104.397,-86.426,-50.781,-358.887,-94.727,0.000
1718676104.401,6.836,-21.973,95.215,37.598,0.000
1718676104.404,35.156,-16.113,226.074,72.266,0.000
1718676104.408,-31.250,-0.488,241.699,-22.461,0.000
1718676104.412,-112.793,-44.434,-254.395,-142.090,0.000
1718676104.416,-96.191,-74.707,-545.410,-114.258,0.000
1718676104.420,-4.883,-16.602,-29.297,30.273,0.000
1718676104.424,24.414,24.414,408.203,80.566,0.000
1718676104.428,-28.809,-6.348,245.605,-10.254,0.000
1718676104.432,-93.262,-81.543,-430.664,-120.605,0.000
1718676104.436,-79.102,-98.633,-715.332,-107.910,0.000
1718676104.440,-11.719,2.441,-83.984,10.254,0.000
1718676104.443,47.852,50.781,388.184,90.820,0.000
1718676104.447,19.043,2.441,226.562,17.090,0.000
1718676104.451,-84.961,-56.641,-322.266,-127.441,0.000
1718676104.455,0.000,-54.199,-497.559,-142.090,0.000
1718676104.459,0.000,-18.066,-121.094,-9.766,0.000
1718676104.463,0.000,8.301,232.910,89.355,0.000
1718676104.467,0.000,18.555,327.637,24.414,0.000
1718676104.471,0.000,-25.391,-79.102,-105.957,0.000
1718676104.475,0.000,-86.914,-584.961,-133.789,0.000
1718676104.478,0.000,-76.172,-470.215,-35.156,0.000
1718676104.482,0.000,21.973,256.348,88.867,0.000
1718676104.486,0.000,43.945,447.266,55.176,0.000
1718676104.490,0.000,-38.086,-113.281,-109.375,0.000
1718676104.494,0.000,-85.938,-502.930,-164.062,0.000
1718676104.498,0.000,-35.156,-223.633,-52.734,0.000
1718676104.502,44.922,14.648,298.340,59.082,0.000
1718676104.506,20.020,0.488,340.820,31.738,0.000
1718676104.510,-65.430,-34.180,38.574,-71.777,0.000
1718676104.513,-104.492,-55.176,-378.418,-139.648,0.000
1718676104.517,-45.898,-42.969,-328.613,-60.547,0.000
1718676104.521,43.457,-8.789,155.273,75.684,0.000
1718676104.525,36.621,5.371,322.754,68.359,0.000
1718676104.529,-59.082,-17.578,133.789,-58.105,0.000
1718676104.533,-113.770,-62.500,-358.887,-145.996,0.000
1718676104.537,-53.223,-73.242,-524.902,-78.125,0.000
1718676104.541,39.551,-12.207,30.762,70.312,0.000
1718676104.545,38.574,29.297,406.738,83.496,0.000
1718676104.549,-40.039,-2.441,163.086,-34.180,0.000
1718676104.553,-95.703,-59.082,-527.832,-141.113,0.000
1718676104.557,-65.430,-48.828,-475.586,-98.633,0.000
1718676104.561,27.344,3.906,174.805,57.129,0.000
1718676104.565,62.500,14.160,299.316,77.637,0.000
1718676104.568,-16.113,-31.738,4.883,-7.324,0.000
1718676104.572,-93.262,-67.871,-393.066,-125.488,0.000
1718676104.576,-65.430,-44.922,-400.391,-116.211,0.000
1718676104.580,18.555,-13.672,12.207,19.531,0.000
1718676104.584,52.734,-19.043,206.543,84.961,0.000
1718676104.588,-6.836,0.977,264.648,-3.906,0.000
1718676104.592,-90.820,-34.668,-208.496,-115.723,0.000
1718676104.596,-70.801,-68.848,-530.762,-84.961,0.000
1718676104.600,22.461,-18.066,-73.730,28.809,0.000
1718676104.604,66.406,32.227,421.387,80.566,0.000
1718676104.608,6.348,3.906,353.516,16.602,0.000
1718676104.612,-75.195,-72.266,-268.066,-96.680,0.000
1718676104.616,-73.730,-81.543,-591.309,-111.328,0.000
1718676104.620,8.789,-21.973,-155.273,6.348,0.000
1718676104.623,71.777,25.391,349.609,114.746,0.000
1718676104.627,21.484,-3.418,217.285,50.781,0.000
1718676104.631,-69.336,-59.082,-289.551,-76.172,0.000
1718676104.635,-74.219,-58.105,-480.469,-100.586,0.000
1718676104.639,-1.953,-41.992,-266.113,-19.531,0.000
1718676104.644,63.965,11.230,234.375,-52.734,0.000
1718676104.648,32.715,34.668,381.348,-132.324,0.000
1718676104.652,-62.012,-21.973,-57.129,-64.941,0.000
1718676104.655,-81.055,-67.871,-492.676,78.125,0.000
1718676104.659,-18.555,-46.875,-267.090,75.684,0.000
1718676104.663,53.223,4.883,227.539,-62.500,0.000
1718676104.667,35.156,20.020,333.008,-143.066,0.000
1718676104.671,-66.895,-33.203,-46.875,-81.055,0.000
1718676104.675,-97.168,-119.629,-720.703,57.129,0.000
1718676104.679,-25.879,-64.941,-468.262,93.262,0.000
1718676104.683,46.387,35.156,293.945,-4.883,0.000
1718676104.687,28.320,26.367,394.043,-110.352,0.000
1718676104.691,0.000,-28.320,66.895,0.000,0.000
1718676104.695,0.000,-62.500,-404.297,0.000,0.000
1718676104.699,0.000,-46.875,-376.953,0.000,0.000
1718676104.703,0.000,-5.371,151.367,0.000,0.000
1718676104.707,0.000,14.160,369.629,0.000,0.000
1718676104.711,0.000,-34.180,28.320,0.000,0.000
1718676104.714,0.000,-85.938,-548.340,0.000,0.000
1718676104.718,0.000,-74.219,-530.762,0.000,0.000
1718676104.722,0.000,-0.488,115.234,0.000,0.000
1718676104.726,0.000,41.504,424.805,0.000,0.000
1718676104.730,0.000,-14.648,148.926,0.000,0.000
1718676104.734,0.000,-96.191,-577.148,0.000,0.000
1718676104.736,-55.176,-74.219,-588.379,-77.637,0.000
1718676104.740,-107.422,11.719,72.266,55.176,0.000
1718676104.744,-54.688,32.227,376.465,101.562,0.000
1718676104.748,39.062,-26.855,83.008,11.230,0.000
1718676104.752,26.367,-64.941,-364.746,-114.746,0.000
1718676104.756,-56.641,-65.918,-511.230,-94.238,0.000
1718676104.760,-101.562,-20.508,-128.906,28.809,0.000
1718676104.764,-52.734,-15.137,178.223,105.469,0.000
1718676104.768,44.922,-6.836,264.648,27.344,0.000
1718676104.772,56.152,-21.973,-144.043,-127.441,0.000
1718676104.775,-23.438,-62.500,-501.465,-124.023,0.000
1718676104.779,-93.750,-23.926,-79.102,14.160,0.000
1718676104.783,52.734,36.621,433.594,93.750,0.000
1718676104.787,11.230,13.184,352.539,28.809,0.000
1718676104.791,-73.242,-62.500,-277.344,-122.070,0.000
1718676104.795,-83.496,-77.148,-507.324,-132.324,0.000
1718676104.799,-13.184,-29.297,-98.633,-11.719,0.000
1718676104.803,50.781,4.883,306.152,94.238,0.000
1718676104.807,17.090,-12.207,212.891,37.598,0.000
1718676104.811,-87.402,-50.293,-261.719,-128.418,0.000
1718676104.814,-101.074,-64.453,-492.188,-140.625,0.000
1718676104.818,-31.250,-30.273,-190.430,-6.836,0.000
1718676104.822,65.918,-9.766,227.051,102.539,0.000
1718676104.826,41.504,-16.602,269.531,62.988,0.000
1718676104.830,-83.008,-23.438,-6.836,-85.449,0.000
1718676104.834,-103.516,-62.500,-477.051,-148.926,0.000
1718676104.838,-26.855,-55.664,-440.918,-52.246,0.000
1718676104.842,64.453,15.137,231.934,69.336,0.000
1718676104.846,44.922,35.645,418.945,46.387,0.000
1718676104.849,-66.895,-34.668,-99.609,-83.008,0.000
1718676104.853,-113.770,-100.586,-645.508,-153.809,0.000
1718676104.857,-81.055,-50.781,-399.414,-79.590,0.000
1718676104.861,-10.254,28.809,301.270,48.828,0.000
1718676104.865,12.207,15.625,375.488,62.012,0.000
1718676104.869,-84.473,-56.152,-215.820,-58.105,0.000
1718676104.873,-142.090,-63.477,-508.301,-148.926,0.000
1718676104.877,-86.914,-42.969,-340.820,-85.938,0.000
1718676104.881,10.742,-7.324,138.184,64.453,0.000
1718676104.884,32.227,23.926,384.277,85.938,0.000
1718676104.888,-39.551,-4.883,158.203,-52.246,0.000
1718676104.892,-115.723,-64.453,-371.582,-151.367,0.000
1718676104.896,-97.168,-91.797,-593.750,-114.258,0.000
1718676104.900,3.906,-32.715,-74.707,41.016,0.000
1718676104.904,38.086,29.297,407.227,93.262,0.000
1718676104.908,-32.227,-8.301,234.863,-8.301,0.000
1718676104.912,-104.492,-76.172,-408.691,-132.324,0.000
1718676104.916,-82.520,-84.473,-532.715,-107.422,0.000
1718676104.920,7.324,-30.762,-14.648,32.715,0.000
1718676104.924,37.109,15.137,387.695,84.961,0.000
1718676104.928,-21.973,-15.625,226.562,13.184,0.000
1718676104.932,-101.074,-63.965,-299.805,-125.488,0.000
1718676104.936,-85.449,-68.848,-446.777,-135.742,0.000
1718676104.940,12.695,-34.668,-52.734,18.066,0.000
1718676104.943,44.434,-11.230,223.145,100.098,0.000
1718676104.947,-9.277,-13.184,244.629,-11.230,0.000
1718676104.951,-76.660,-48.340,-193.359,-139.160,0.000
1718676104.955,-80.078,-77.148,-505.859,-118.164,0.000
1718676104.959,-2.441,-57.129,-158.691,10.742,0.000
1718676104.963,52.734,4.395,322.754,86.914,0.000
1718676104.967,16.113,16.602,379.883,39.062,0.000
1718676104.971,0.000,-55.176,-163.086,-97.168,0.000
1718676104.975,0.000,-89.355,-500.977,-145.508,0.000
1718676104.979,0.000,-28.320,-93.262,-31.250,0.000
1718676104.983,0.000,29.785,402.832,75.684,0.000
1718676104.987,0.000,10.254,333.984,23.438,0.000
1718676104.991,0.000,-58.594,-198.730,-103.516,0.000
1718676104.995,0.000,-75.684,-477.051,-149.414,0.000
1718676104.998,0.000,-28.320,-190.430,-52.734,0.000
1718676105.002,0.000,-4.883,219.727,87.891,0.000
1718676105.006,0.000,-11.719,293.945,61.035,0.000
1718676105.010,0.000,-26.367,-18.555,-93.262,0.000
1718676105.014,0.000,-79.102,-555.664,-168.945,0.000
1718676105.018,-55.176,-75.684,-492.188,-80.078,0.000
1718676105.022,49.805,-2.441,207.031,48.828,0.000
1718676105.026,18.066,35.156,456.543,39.551,0.000
1718676105.030,-77.637,-19.531,78.613,-75.684,0.000
1718676105.034,-129.395,-86.914,-483.398,-163.574,0.000
1718676105.038,-75.195,-64.453,-397.949,-108.887,0.000
1718676105.042,5.371,14.160,257.324,20.020,0.000
1718676105.045,-21.973,20.508,424.316,19.531,0.000
1718676105.049,-108.887,-67.383,-196.289,-104.980,0.000
1718676105.053,-177.734,-76.172,-491.211,-206.543,0.000
1718676105.057,-153.320,-40.527,-271.484,-157.715,0.000
1718676105.061,-65.430,0.488,203.125,-34.180,0.000
1718676105.065,-66.406,35.156,460.449,-35.156,0.000
1718676105.069,-160.645,6.348,255.371,-167.969,0.000
1718676105.073,-253.418,-54.688,-307.129,-287.109,0.000
1718676105.077,-229.492,-69.336,-481.445,-263.672,0.000
1718676105.081,-140.137,-9.766,72.754,-137.207,0.000
1718676105.085,-125.977,20.508,395.508,-91.309,0.000
1718676105.089,-218.750,-13.672,226.074,-201.172,0.000
1718676105.092,-301.758,-77.148,-383.301,-328.613,0.000
1718676105.096,-277.344,-79.102,-505.859,-311.523,0.000
1718676105.100,-187.988,-9.766,63.965,-185.059,0.000
1718676105.104,-144.531,17.090,400.391,-125.977,0.000
1718676105.108,-197.754,-35.645,145.508,-194.336,0.000
1718676105.112,-292.969,-78.125,-354.980,-318.359,0.000
1718676105.116,-282.715,-62.500,-439.453,-322.266,0.000
1718676105.120,-179.688,-34.180,-86.914,-194.824,0.000
1718676105.124,-116.211,-7.812,292.480,-106.445,0.000
1718676105.128,-154.785,-14.648,320.312,-156.250,0.000
1718676105.131,-224.121,-77.637,-299.805,-265.137,0.000
1718676105.135,-221.191,-114.746,-670.898,-280.762,0.000
1718676105.139,-127.441,-63.965,-246.094,-154.297,0.000
1718676105.143,-51.758,22.461,349.121,-36.133,0.000
1718676105.147,-87.402,20.508,395.508,-81.543,0.000
1718676105.151,-174.316,-66.406,-205.078,-199.219,0.000
1718676105.155,-174.805,-117.188,-701.660,-213.379,0.000
1718676105.159,-93.262,-45.410,-230.957,-116.699,0.000
1718676105.163,-20.996,16.113,351.562,10.254,0.000
1718676105.167,-43.945,-2.930,331.055,-16.113,0.000
1718676105.171,-122.559,-50.781,-58.594,-147.461,0.000
1718676105.174,-150.879,-74.219,-463.867,-184.570,0.000
1718676105.178,-87.891,-64.941,-396.973,-94.238,0.000
1718676105.182,-9.277,-23.438,128.418,38.086,0.000
1718676105.186,-20.996,8.301,367.676,31.738,0.000
1718676105.190,-104.492,-18.066,2.441,-98.145,0.000
1718676105.194,-144.043,-81.543,-550.781,-165.039,0.000
1718676105.198,-89.844,-84.473,-540.527,-82.031,0.000
1718676105.202,-7.324,-15.625,114.258,35.645,0.000
1718676105.206,-19.531,29.297,427.734,19.043,0.000
1718676105.209,-112.793,-23.926,71.777,-102.539,0.000
1718676105.213,-163.574,-91.309,-593.750,-192.383,0.000
1718676105.217,-125.000,-52.246,-479.980,-145.996,0.000
1718676105.221,-49.805,24.902,238.770,-14.648,0.000
1718676105.225,-36.621,21.484,297.852,0.488,0.000
1718676105.229,-99.609,-51.270,-252.930,-116.699,0.000
1718676105.233,-166.504,-57.617,-531.250,-233.887,0.000
1718676105.237,-145.996,-14.160,-371.582,-200.195,0.000
1718676105.241,-70.801,19.531,114.258,-52.734,0.000
1718676105.245,-36.133,49.316,400.391,-6.836,0.000
1718676105.249,-105.957,28.320,168.457,-104.492,0.000
1718676105.252,-193.359,-24.902,-344.238,-229.004,0.000
1718676105.256,-164.062,-26.367,-532.715,-209.961,0.000
1718676105.260,-55.664,31.738,-68.359,-70.312,0.000
1718676105.264,-21.973,83.008,406.738,-6.348,0.000
1718676105.268,-74.219,59.082,275.879,-73.730,0.000
1718676105.272,-126.465,-23.438,-438.477,-158.203,0.000
1718676105.276,-104.980,-23.438,-579.590,-168.945,0.000
1718676105.280,-22.949,69.336,11.719,-64.941,0.000
1718676105.283,30.273,110.840,358.887,47.363,0.000
1718676105.287,1.953,72.266,242.188,-10.254,0.000
1718676105.291,-62.988,21.484,-227.539,-104.980,0.000
1718676105.295,-64.453,20.020,-506.836,-100.586,0.000
1718676105.299,0.000,69.336,-127.930,15.137,0.000
1718676105.303,0.000,88.867,249.512,130.859,0.000
1718676105.307,0.000,78.125,245.605,84.961,0.000
1718676105.311,0.000,54.199,-92.285,-49.316,0.000
1718676105.315,0.000,22.461,-439.453,-67.383,0.000
1718676105.319,0.000,25.879,-342.773,27.832,0.000
1718676105.323,0.000,85.938,205.078,132.324,0.000
1718676105.327,0.000,106.934,393.066,90.820,0.000
1718676105.331,0.000,41.992,-59.570,-34.180,0.000
1718676105.335,0.000,-5.859,-444.336,-42.969,0.000
1718676105.339,0.000,41.504,-213.867,46.875,0.000
1718676105.342,0.000,92.773,293.945,149.414,0.000
1718676105.347,92.773,73.730,297.852,147.949,0.000
1718676105.350,24.902,16.602,-116.211,32.715,0.000
1718676105.354,-7.812,3.418,-357.422,-34.180,0.000
1718676105.358,56.152,20.020,-250.977,52.246,0.000
1718676105.362,124.512,31.738,94.727,151.367,0.000
1718676105.366,98.633,31.738,219.238,117.676,0.000
1718676105.370,12.695,6.836,-47.852,40.039,0.000
1718676105.374,-20.020,-17.578,-365.723,-2.930,0.000
1718676105.378,26.367,-30.273,-444.824,57.129,0.000
1718676105.382,83.008,2.441,-88.379,148.438,0.000
1718676105.386,83.984,44.434,276.855,139.160,0.000
1718676105.390,22.949,-1.953,-37.109,72.266,0.000
1718676105.394,-14.648,-36.621,-431.641,25.879,0.000
1718676105.398,15.625,-21.973,-274.414,62.988,0.000
1718676105.402,56.641,9.277,123.047,137.695,0.000
1718676105.406,66.406,16.113,193.848,144.043,0.000
1718676105.410,22.461,-17.090,-118.652,94.238,0.000
1718676105.414,-10.742,-43.457,-389.648,54.688,0.000
1718676105.418,16.113,-30.762,-250.000,75.684,0.000
1718676105.422,48.828,-25.879,-42.480,118.652,0.000
1718676105.426,53.711,-47.363,-212.402,117.676,0.000
1718676105.429,21.973,-11.230,-29.297,73.730,0.000
1718676105.433,-22.949,-5.371,-18.066,25.879,0.000
1718676105.437,1.465,-38.086,-314.941,43.457,0.000
1718676105.441,55.664,-30.762,-138.184,108.398,0.000
1718676105.445,57.617,4.395,154.785,126.953,0.000
1718676105.449,20.020,-2.441,93.750,86.914,0.000
1718676105.453,-18.555,-41.992,-212.402,45.898,0.000
1718676105.457,-15.625,-44.434,-301.270,57.617,0.000
1718676105.461,27.344,-27.832,-213.379,108.887,0.000
1718676105.465,42.480,-16.602,-69.336,142.090,0.000
1718676105.469,15.137,-19.531,-74.707,88.867,0.000
1718676105.472,-13.672,-27.832,-230.957,17.090,0.000
1718676105.476,-10.742,-14.648,-202.637,30.273,0.000
1718676105.480,35.156,-17.090,-184.082,89.844,0.000
1718676105.484,51.270,-44.434,-260.254,118.164,0.000
1718676105.488,20.508,-29.785,-125.977,91.797,0.000
1718676105.492,-21.484,-7.324,69.336,33.203,0.000
1718676105.496,-20.508,-29.297,-70.801,33.691,0.000
1718676105.500,29.785,-28.809,-196.289,84.961,0.000
1718676105.504,62.500,-5.371,70.801,106.445,0.000
1718676105.508,39.062,-9.277,104.980,90.820,0.000
1718676105.512,-7.812,-37.109,-203.613,48.828,0.000
1718676105.515,-9.277,-75.195,-444.336,14.648,0.000
1718676105.519,35.645,-29.297,-90.332,31.738,0.000
1718676105.523,62.988,9.766,227.051,72.754,0.000
1718676105.527,52.734,-15.625,66.406,80.078,0.000
1718676105.531,14.648,-21.973,-38.086,16.602,0.000
1718676105.535,-36.133,-30.762,-24.414,0.488,0.000
1718676105.539,-28.809,-40.527,-115.723,77.148,0.000
1718676105.543,17.578,-14.648,42.480,101.074,0.000
1718676105.547,7.812,3.906,186.523,63.965,0.000
1718676105.550,-37.109,-0.488,92.773,14.160,0.000
1718676105.554,-49.805,-15.625,-191.895,-12.695,0.000
1718676105.558,-23.438,-4.395,-209.961,0.000,0.000
1718676105.562,17.090,35.645,128.418,36.621,0.000
1718676105.566,18.066,51.758,232.910,20.996,0.000
1718676105.570,-13.184,41.504,187.500,-28.320,0.000
1718676105.574,-27.344,6.348,-148.438,-45.898,0.000
1718676105.578,-22.949,10.254,-262.207,-39.062,0.000
1718676105.581,0.488,61.523,116.699,-18.066,0.000
1718676105.585,16.113,51.758,101.562,-6.348,0.000
1718676105.589,-8.789,33.691,-27.344,-18.555,0.000
1718676105.593,-40.527,31.738,-71.777,-52.734,0.000
1718676105.597,-7.812,30.762,-50.781,-57.129,0.000
1718676105.601,34.668,25.879,-7.812,-11.719,0.000
1718676105.605,16.602,2.441,-229.980,13.672,0.000
1718676105.609,-18.066,27.344,-7.812,-28.809,0.000
1718676105.613,-43.945,39.062,149.414,-93.750,0.000
1718676105.617,-21.973,10.742,-45.410,-64.941,0.000
1718676105.621,26.855,-1.465,-129.395,-6.836,0.000
1718676105.624,31.738,27.832,105.469,5.859,0.000
1718676105.628,0.000,31.250,153.320,-4.883,0.000
1718676105.632,0.000,2.441,-77.637,-37.598,0.000
1718676105.636,0.000,-8.301,-146.484,-33.203,0.000
1718676105.640,0.000,6.348,50.781,6.836,0.000
1718676105.644,0.000,19.043,131.836,25.391,0.000
1718676105.648,0.000,-13.672,-52.246,2.930,0.000
1718676105.652,0.000,-41.016,-278.809,-23.438,0.000
1718676105.656,0.000,-13.184,-125.488,-19.043,0.000
1718676105.659,0.000,4.395,83.496,0.488,0.000
1718676105.663,0.000,-12.695,26.367,22.461,0.000
1718676105.667,0.000,-22.461,13.184,17.578,0.000
1718676105.671,0.000,-24.414,-23.926,-4.883,0.000
1718676105.675,-37.598,-23.438,19.043,-33.691,0.000
1718676105.679,-7.812,-42.969,-106.445,-20.508,0.000
1718676105.683,17.090,-21.973,17.090,8.301,0.000
1718676105.687,-6.348,-1.953,219.238,7.812,0.000
1718676105.691,-53.711,-22.949,100.098,-18.555,0.000
1718676105.695,-49.805,-63.477,-269.531,-29.785,0.000
1718676105.699,-23.926,-39.551,-98.633,-4.883,0.000
1718676105.703,1.465,2.930,229.004,24.414,0.000
1718676105.707,-6.348,-20.508,136.719,15.625,0.000
1718676105.711,-60.059,-66.895,-186.035,-14.160,0.000
1718676105.714,-80.078,-37.109,5.371,-36.621,0.000
1718676105.718,-45.410,-13.672,197.266,-20.996,0.000
1718676105.722,-1.465,-21.973,141.113,16.602,0.000
1718676105.726,-1.953,-17.578,205.566,13.672,0.000
1718676105.730,-30.762,-11.230,205.566,-0.488,0.000
1718676105.734,-63.477,-18.555,158.691,-19.043,0.000
1718676105.738,-48.340,-37.109,70.801,-25.879,0.000
1718676105.742,4.395,-41.016,75.195,8.789,0.000
1718676105.746,-3.418,-23.926,182.129,19.531,0.000
1718676105.750,-44.434,-14.648,238.770,-19.531,0.000
1718676105.754,-58.105,-50.293,-31.250,-38.086,0.000
1718676105.758,-36.621,-51.270,-71.289,-23.926,0.000
1718676105.761,2.930,-9.277,198.730,-2.930,0.000
1718676105.765,3.418,-31.738,121.582,10.742,0.000
1718676105.769,-43.945,-39.062,82.520,-10.254,0.000
1718676105.773,-72.754,-14.160,148.926,-20.996,0.000
1718676105.777,-46.875,-11.230,167.480,-4.395,0.000
1718676105.781,-18.066,-15.625,157.227,-30.273,0.000
1718676105.785,-29.297,-21.484,110.840,-41.504,0.000
1718676105.789,-54.688,-28.809,112.305,-48.340,0.000
1718676105.793,-83.008,-32.227,84.961,-76.660,0.000
1718676105.797,-75.195,-40.039,2.441,-63.477,0.000
1718676105.801,-49.805,-40.039,-42.969,-40.527,0.000
1718676105.805,-33.691,-7.324,164.062,-36.133,0.000
1718676105.809,-51.758,1.465,237.793,-37.109,0.000
1718676105.812,-85.449,-20.020,41.992,-46.875,0.000
1718676105.816,-71.777,-27.832,-47.363,-41.992,0.000
1718676105.820,-34.668,-10.742,90.820,-21.484,0.000
1718676105.824,-16.602,-19.531,78.125,-8.301,0.000
1718676105.828,-31.250,-31.250,-7.812,-17.090,0.000
1718676105.832,-70.312,-27.344,-45.410,-42.480,0.000
1718676105.836,-68.359,-24.414,-60.059,-48.340,0.000
1718676105.840,-21.973,-8.301,-3.906,-22.461,0.000
1718676105.844,10.742,-22.461,-50.781,0.000,0.000
1718676105.848,-19.531,-36.621,-88.867,-8.301,0.000
1718676105.852,-73.242,2.930,154.785,-35.645,0.000
1718676105.855,-78.125,-17.578,-6.348,-42.969,0.000
1718676105.859,-40.039,-41.016,-220.215,-26.367,0.000
1718676105.863,0.000,-10.742,40.527,4.883,0.000
1718676105.867,0.000,-1.465,181.641,24.902,0.000
1718676105.871,0.000,-12.695,60.547,-30.762,0.000
1718676105.875,0.000,-30.762,-221.680,-59.570,0.000
1718676105.879,0.000,-21.973,-123.535,-24.414,0.000
1718676105.883,0.000,-15.137,-37.109,4.395,0.000
1718676105.887,0.000,-24.414,-179.688,16.113,0.000
1718676105.891,0.000,-57.617,-369.141,11.230,0.000
1718676105.894,0.000,-26.367,-151.855,-1.465,0.000
1718676105.898,0.000,2.441,104.980,-4.395,0.000
1718676105.902,0.000,-20.508,0.488,16.602,0.000
1718676105.906,0.000,-20.020,-52.246,23.926,0.000
1718676105.909,6.836,-2.441,55.176,9.277,0.000
1718676105.913,-0.488,-8.301,36.621,-7.324,0.000
1718676105.917,-46.875,-26.367,-157.227,-0.488,0.000
1718676105.921,-68.848,-17.578,-127.441,16.113,0.000
1718676105.925,-33.203,-6.836,56.152,12.207,0.000
1718676105.928,12.207,-25.391,-158.691,3.906,0.000
1718676105.932,1.465,-35.645,-295.410,-13.184,0.000
1718676105.936,-29.785,-22.949,-255.859,-9.766,0.000
1718676105.940,-62.012,-6.348,-118.164,15.137,0.000
1718676105.944,-43.457,4.883,91.309,15.137,0.000
1718676105.948,4.395,-31.250,-172.363,2.441,0.000
1718676105.952,-7.812,-27.832,-221.191,-7.324,0.000
1718676105.954,-45.410,22.949,72.266,-10.254,0.000
1718676105.958,-58.105,13.672,64.453,5.371,0.000
1718676105.962,-41.992,-10.742,-84.473,18.555,0.000
1718676105.966,-0.977,0.488,38.574,2.930,0.000
1718676105.970,1.465,0.000,54.199,-22.949,0.000
1718676105.973,-25.879,-20.996,-223.145,-9.766,0.000
1718676105.977,-47.852,-50.781,-426.270,19.043,0.000
1718676105.981,-36.621,-12.695,-89.355,16.113,0.000
1718676105.985,-2.441,15.625,182.129,-7.324,0.000
1718676105.989,0.977,-17.578,-49.316,-21.973,0.000
1718676105.993,-28.320,-30.762,-219.727,-19.043,0.000
1718676105.997,-48.340,-6.348,-1.465,1.465,0.000
1718676106.001,8.789,5.859,135.254,20.508,0.000
1718676106.005,-15.137,-7.324,-17.578,19.531,0.000
1718676106.008,-60.547,-13.672,-134.766,-13.672,0.000
1718676106.012,-63.477,-6.348,-5.371,-25.879,0.000
1718676106.016,-24.902,-2.441,55.664,4.883,0.000
1718676106.020,11.719,-21.973,-198.242,-1.465,0.000
1718676106.024,-9.277,-16.602,-128.906,-11.230,0.000
1718676106.028,-53.223,3.906,87.402,0.000,0.000
1718676106.032,-57.617,-10.254,10.254,-22.461,0.000
1718676106.036,-28.809,-27.832,-137.207,-5.371,0.000
1718676106.040,8.301,-19.531,-151.367,28.320,0.000
1718676106.044,-0.977,-10.742,-88.867,10.742,0.000
1718676106.048,0.000,-8.301,0.000,-14.160,0.000
1718676106.052,0.000,-46.387,0.000,-15.625,0.000
1718676106.056,0.000,-25.879,0.000,-5.371,0.000
1718676106.060,0.000,15.625,0.000,7.324,0.000
1718676106.064,0.000,-1.953,0.000,-4.883,0.000
1718676106.067,0.000,-26.855,0.000,-17.578,0.000
1718676106.071,0.000,-19.531,0.000,-22.461,0.000
1718676106.075,0.000,4.395,0.000,-23.926,0.000
1718676106.079,0.000,-8.301,0.000,2.930,0.000
1718676106.083,0.000,-40.527,0.000,20.020,0.000
1718676106.087,0.000,-15.137,0.000,-4.395,0.000
1718676106.091,0.000,-7.812,0.000,-24.902,0.000
1718676106.095,-63.477,-29.297,-137.207,-31.250,0.000
1718676106.099,-18.066,-24.414,-120.605,-29.297,0.000
1718676106.103,-17.578,-12.695,91.309,-17.090,0.000
1718676106.107,-59.570,-24.902,-37.598,-15.625,0.000
1718676106.111,-78.125,-45.898,-282.715,-26.855,0.000
1718676106.115,-53.223,-50.781,-310.059,-18.066,0.000
1718676106.119,-15.625,-30.273,-135.254,0.977,0.000
1718676106.122,0.488,-5.371,81.055,1.465,0.000
1718676106.126,-20.508,-39.551,-114.746,-2.930,0.000
1718676106.130,-68.359,-57.617,-266.602,-5.859,0.000
1718676106.134,-76.660,-27.344,-193.359,-22.461,0.000
1718676106.138,-24.902,-31.738,-265.625,-6.348,0.000
1718676106.142,0.000,-30.762,-279.785,7.812,0.000
1718676106.146,0.000,-11.719,-44.922,-19.531,0.000
1718676106.150,0.000,-9.766,63.965,-28.809,0.000
1718676106.154,0.000,-22.461,-20.996,-32.227,0.000
1718676106.158,0.000,-37.598,-216.309,-29.297,0.000
1718676106.162,0.000,-31.250,-232.422,-5.371,0.000
1718676106.166,0.000,-23.438,-109.863,-8.301,0.000
1718676106.170,0.000,-36.621,-237.305,-21.484,0.000
1718676106.173,0.000,-54.688,-401.367,-27.344,0.000
1718676106.177,0.000,-24.902,-88.379,-19.531,0.000
1718676106.181,0.000,-6.836,155.273,-6.836,0.000
1718676106.185,0.000,-28.320,31.250,-3.906,0.000
1718676106.190,-60.059,-60.547,-266.602,-6.836,0.000
1718676106.194,-69.336,-28.809,-60.547,-20.996,0.000
1718676106.198,-40.527,-10.742,111.816,-17.578,0.000
1718676106.202,-3.418,-21.973,-19.043,0.977,0.000
1718676106.205,-2.441,-16.602,57.617,-1.465,0.000
1718676106.209,-44.922,-32.715,-50.293,-19.531,0.000
1718676106.213,-58.594,-39.062,-199.707,-34.180,0.000
1718676106.217,-33.203,-47.852,-280.273,-19.043,0.000
1718676106.221,0.000,-52.734,-191.895,0.977,0.000
1718676106.225,-5.859,-12.207,102.051,-4.395,0.000
1718676106.229,-48.828,-29.297,-11.719,-11.719,0.000
1718676106.233,-65.430,-54.688,-254.883,-19.531,0.000
1718676106.237,0.000,-24.414,-20.020,-21.973,0.000
1718676106.241,0.000,-9.766,170.410,-8.301,0.000
1718676106.245,0.000,-20.996,84.473,-8.789,0.000
1718676106.249,0.000,-38.574,-62.012,-19.043,0.000
1718676106.252,0.000,-31.738,-32.227,-40.039,0.000
1718676106.256,0.000,-33.203,-145.020,-37.109,0.000
1718676106.260,0.000,-39.551,-255.859,-11.719,0.000
1718676106.264,0.000,-37.598,-179.688,-7.324,0.000
1718676106.268,0.000,-15.625,51.758,-25.391,0.000
1718676106.272,0.000,-14.160,105.469,-44.434,0.000
1718676106.276,0.000,-35.645,-37.109,-30.762,0.000
1718676106.280,0.000,-44.922,-190.918,8.301,0.000
1718676106.282,-41.504,-22.949,-67.871,3.906,0.000
1718676106.286,-8.301,-14.648,143.066,-33.691,0.000
1718676106.290,-9.766,-51.270,-69.824,-46.387,0.000
1718676106.294,-52.246,-67.871,-263.672,-24.902,0.000
1718676106.298,-84.961,-23.438,40.039,-11.719,0.000
1718676106.301,-61.035,-26.855,20.508,-12.695,0.000
1718676106.305,-12.695,-57.129,-229.980,-22.461,0.000
1718676106.309,-7.324,-57.617,-238.770,-33.691,0.000
1718676106.313,-32.715,-20.508,37.598,-43.457,0.000
1718676106.317,-69.336,-11.719,123.047,-29.297,0.000
1718676106.321,-56.641,-32.715,-61.523,-12.695,0.000
1718676106.325,8.789,-29.297,-95.703,-26.367,0.000
1718676106.329,-78.125,-12.695,81.055,-44.922,0.000
1718676106.333,-67.383,-20.996,31.250,-39.062,0.000
1718676106.337,-31.250,-45.410,-186.035,-18.066,0.000
1718676106.340,-8.789,-30.762,16.113,-22.949,0.000
1718676106.344,-24.902,-20.996,166.992,-47.852,0.000
1718676106.348,-57.129,-54.199,-129.395,-60.059,0.000
1718676106.352,-65.918,-86.426,-434.082,-54.688,0.000
1718676106.356,-41.016,-42.480,-132.324,-43.945,0.000
1718676106.360,-5.859,3.418,176.758,-34.668,0.000
1718676106.364,-8.789,-14.648,50.781,-31.250,0.000
1718676106.368,-49.316,-32.715,-62.012,-40.527,0.000
1718676106.372,-71.777,-19.043,38.574,-42.969,0.000
1718676106.376,-30.762,-17.578,80.078,-27.344,0.000
1718676106.379,4.883,-24.414,30.762,-9.277,0.000
1718676106.383,-8.789,-14.160,9.766,-7.812,0.000
1718676106.387,-42.480,-9.277,74.707,-26.367,0.000
1718676106.391,-61.035,-20.996,26.855,-42.969,0.000
1718676106.395,-35.645,-41.016,-232.422,-38.086,0.000
1718676106.399,-5.371,-39.551,-243.652,-17.578,0.000
1718676106.403,-17.578,-16.113,61.035,-13.672,0.000
1718676106.407,-50.293,-18.066,102.051,-30.762,0.000
1718676106.411,-69.824,-41.016,-111.816,-39.551,0.000
1718676106.415,-42.969,-41.504,-205.078,-31.738,0.000
1718676106.419,2.930,-20.996,-166.504,-5.859,0.000
1718676106.423,3.418,-4.395,42.969,0.488,0.000
1718676106.427,-38.086,-36.133,-107.910,-24.414,0.000
1718676106.431,-64.453,-34.668,-108.887,-44.922,0.000
1718676106.435,-43.945,-3.418,90.820,-39.551,0.000
1718676106.438,2.441,-9.766,54.688,-13.672,0.000
1718676106.442,7.812,-50.293,-296.875,5.371,0.000
1718676106.446,-26.367,-31.738,-164.551,-14.160,0.000
1718676106.450,-59.082,-12.695,-1.465,-36.133,0.000
1718676106.454,-59.082,-37.598,-282.227,-26.367,0.000
1718676106.458,-14.160,-55.664,-370.605,-3.906,0.000
1718676106.462,4.883,-6.348,13.184,-9.766,0.000
1718676106.466,-29.297,3.418,175.781,-28.320,0.000
1718676106.470,-65.430,-30.762,-44.434,-38.086,0.000
1718676106.474,-53.711,-27.344,-119.141,-36.133,0.000
1718676106.478,-14.648,-15.625,59.082,-25.391,0.000
1718676106.482,-0.977,-9.766,124.023,-23.438,0.000
1718676106.486,-31.738,-30.273,-5.859,-39.062,0.000
1718676106.490,-70.312,-45.410,-227.539,-48.340,0.000
1718676106.493,-66.895,-35.645,-256.836,-48.828,0.000
1718676106.497,-26.855,-21.973,-15.137,-30.762,0.000
1718676106.501,-2.930,-29.297,-21.973,-7.812,0.000
1718676106.505,-28.809,-25.391,-21.973,-14.160,0.000
1718676106.509,-63.965,-28.809,-76.172,-31.738,0.000
1718676106.513,-62.988,-41.016,-277.832,-39.062,0.000
1718676106.517,-25.879,-45.898,-368.164,-24.414,0.000
1718676106.521,6.348,-16.602,-152.832,-5.859,0.000
1718676106.525,-10.742,12.695,104.004,-14.160,0.000
1718676106.529,-46.387,-5.859,38.574,-29.297,0.000
1718676106.533,-52.734,-28.809,-204.102,-31.738,0.000
1718676106.537,-17.090,-25.879,-296.875,-16.602,0.000
1718676106.541,9.766,-1.953,-71.289,-7.812,0.000
1718676106.544,-13.184,-10.254,31.738,-12.207,0.000
1718676106.548,-46.387,-53.223,-309.082,-19.531,0.000
1718676106.552,-63.477,-27.344,-138.184,-34.668,0.000
1718676106.556,-43.945,-11.230,86.426,-30.273,0.000
1718676106.560,-0.977,-29.297,-31.738,-4.395,0.000
1718676106.564,0.000,-26.855,-124.023,6.348,0.000
1718676106.568,0.000,-14.648,-41.016,-11.719,0.000
1718676106.572,0.000,-7.812,62.500,-33.691,0.000
1718676106.576,0.000,-21.484,-92.773,-32.227,0.000
1718676106.580,0.000,-20.996,-141.602,-18.066,0.000
1718676106.584,0.000,-12.207,4.883,-25.391,0.000
1718676106.588,0.000,-16.113,-64.453,-54.688,0.000
1718676106.592,0.000,-41.992,-291.016,-68.848,0.000
1718676106.596,0.000,-42.480,-224.121,-72.266,0.000
1718676106.599,0.000,15.625,125.977,-83.496,0.000
1718676106.603,0.000,13.184,125.977,-87.891,0.000
1718676106.607,0.000,-12.695,-74.707,-110.840,0.000
1718676106.611,-170.898,0.000,-19.043,-137.207,0.000
1718676106.615,-163.086,9.277,91.309,-136.719,0.000
1718676106.619,-125.000,8.301,58.105,-119.629,0.000
1718676106.623,-126.953,-14.648,-96.191,-125.977,0.000
1718676106.627,-160.645,-12.207,-9.277,-141.113,0.000
1718676106.631,-207.031,-23.926,-106.934,-167.969,0.000
1718676106.635,-224.609,-41.992,-280.273,-199.707,0.000
1718676106.639,-206.543,-54.688,-367.188,-194.336,0.000
1718676106.642,-218.262,-20.996,-25.391,-218.262,0.000
1718676106.646,-264.160,3.906,197.266,-259.766,0.000
1718676106.650,-318.848,-27.832,-21.973,-289.551,0.000
1718676106.654,-330.566,-42.480,-148.438,-309.570,0.000
1718676106.658,-297.852,-33.691,5.371,-303.711,0.000
1718676106.662,-282.715,-25.879,145.508,-288.574,0.000
1718676106.666,-308.594,-39.551,-6.836,-287.109,0.000
1718676106.670,-332.520,-54.199,-97.656,-303.711,0.000
1718676106.674,-325.195,-50.293,11.230,-302.246,0.000
1718676106.678,-293.945,-58.594,-127.930,-286.133,0.000
1718676106.682,-258.301,-71.777,-262.695,-272.949,0.000
1718676106.685,-269.043,-77.637,-243.652,-260.742,0.000
1718676106.689,-309.570,-39.551,38.086,-268.066,0.000
1718676106.693,-296.875,-42.969,101.074,-270.996,0.000
1718676106.697,-246.094,-77.148,-118.164,-250.000,0.000
1718676106.701,-208.496,-71.289,-54.199,-218.262,0.000
1718676106.705,-230.957,-38.086,163.574,-229.004,0.000
1718676106.709,-270.996,-55.176,92.285,-249.023,0.000
1718676106.713,-260.742,-85.938,-147.949,-232.422,0.000
1718676106.717,-218.262,-65.918,-8.789,-216.309,0.000
1718676106.721,-182.617,-49.805,169.922,-219.727,0.000
1718676106.724,-183.594,-79.590,-27.344,-214.355,0.000
1718676106.728,-220.215,-96.191,-242.188,-216.309,0.000
1718676106.732,-242.676,-61.035,-19.043,-232.422,0.000
1718676106.736,-208.496,-61.523,104.004,-216.797,0.000
1718676106.740,-162.109,-86.914,-58.594,-193.359,0.000
1718676106.744,-168.945,-75.684,-43.945,-186.523,0.000
1718676106.748,-205.078,-51.758,117.188,-188.965,0.000
1718676106.752,-219.727,-58.594,117.676,-198.730,0.000
1718676106.756,-193.359,-79.102,-28.809,-183.594,0.000
1718676106.759,-131.348,-74.707,-98.145,-151.367,0.000
1718676106.763,-131.836,-61.035,104.492,-170.410,0.000
1718676106.767,-169.434,-52.734,165.527,-182.617,0.000
1718676106.771,-194.824,-85.449,-111.816,-177.734,0.000
1718676106.775,-177.246,-110.352,-297.363,-172.852,0.000
1718676106.779,-132.812,-52.734,78.125,-157.715,0.000
1718676106.783,-125.000,-49.316,161.133,-147.949,0.000
1718676106.787,-155.273,-76.660,-40.039,-147.461,0.000
1718676106.791,-178.711,-79.102,-23.438,-149.902,0.000
1718676106.795,-148.438,-75.684,-59.082,-137.695,0.000
1718676106.799,-96.191,-75.195,-121.094,-108.887,0.000
1718676106.803,-98.145,-79.102,-47.852,-114.746,0.000
1718676106.807,-135.254,-62.988,107.422,-130.859,0.000
1718676106.811,-157.715,-53.711,137.695,-138.672,0.000
1718676106.815,-139.160,-64.453,72.754,-124.512,0.000
1718676106.818,-86.426,-90.820,-159.180,-88.867,0.000
1718676106.822,-59.570,-65.918,-34.668,-75.684,0.000
1718676106.826,-90.332,-24.902,226.562,-83.984,0.000
1718676106.830,-121.582,-45.898,68.848,-93.750,0.000
1718676106.834,-108.887,-94.238,-299.316,-84.961,0.000
1718676106.838,-81.543,-59.082,-21.973,-71.777,0.000
1718676106.842,-41.504,-27.832,217.285,-49.805,0.000
1718676106.846,0.000,-38.086,90.332,-49.805,0.000
1718676106.850,0.000,-42.480,3.906,-60.547,0.000
1718676106.854,0.000,-41.016,1.465,-39.062,0.000
1718676106.858,0.000,-23.926,105.469,-11.719,0.000
1718676106.862,0.000,-23.438,70.801,13.672,0.000
1718676106.866,0.000,-33.203,-14.648,21.973,0.000
1718676106.870,0.000,-20.996,26.367,23.926,0.000
1718676106.873,0.000,-3.906,110.352,30.762,0.000
1718676106.877,0.000,-28.320,-112.793,58.105,0.000
1718676106.881,0.000,-38.574,-123.535,91.309,0.000
1718676106.885,0.000,-4.883,141.602,80.078,0.000
1718676106.889,0.000,-14.648,43.457,67.871,0.000
1718676106.893,47.363,-22.461,-62.500,89.844,0.000
1718676106.897,88.867,1.465,68.359,98.145,0.000
1718676106.901,130.859,19.043,188.477,99.609,0.000
1718676106.905,120.117,12.207,117.676,105.469,0.000
1718676106.909,98.145,-8.789,-34.668,101.562,0.000
1718676106.913,96.191,-15.137,-89.844,110.352,0.000
1718676106.917,116.699,-0.488,-44.922,132.324,0.000
1718676106.920,164.062,8.301,-5.371,139.160,0.000
1718676106.924,171.875,-12.207,-213.379,151.367,0.000
1718676106.928,144.043,28.809,1.953,148.926,0.000
1718676106.932,138.672,59.082,188.477,130.859,0.000
1718676106.936,169.434,38.574,25.879,145.996,0.000
1718676106.940,216.797,41.992,14.648,174.316,0.000
1718676106.944,218.262,46.875,123.047,179.688,0.000
1718676106.948,167.969,44.434,126.953,165.527,0.000
1718676106.952,140.625,27.832,-34.180,153.809,0.000
1718676106.956,169.922,19.531,-94.238,158.203,0.000
1718676106.960,212.402,18.555,-122.070,180.664,0.000
1718676106.964,208.008,23.926,-72.266,174.805,0.000
1718676106.967,166.992,16.113,-40.039,157.715,0.000
1718676106.971,131.836,18.066,-96.680,143.066,0.000
1718676106.975,140.137,41.504,62.988,143.066,0.000
1718676106.979,176.270,26.855,40.039,164.551,0.000
1718676106.983,176.270,-6.836,-165.527,159.180,0.000
1718676106.987,141.113,6.348,-11.719,135.254,0.000
1718676106.991,106.445,23.438,133.301,123.047,0.000
1718676106.995,109.375,13.672,34.180,130.859,0.000
1718676106.999,148.926,-9.766,-248.535,158.691,0.000
1718676107.003,160.645,5.371,-36.133,152.832,0.000
1718676107.006,125.488,17.090,142.578,126.953,0.000
1718676107.010,80.566,-11.230,-104.004,110.352,0.000
1718676107.014,84.961,-41.504,-367.676,109.863,0.000
1718676107.018,113.281,-0.977,-103.027,117.676,0.000
1718676107.022,123.535,19.531,150.879,124.023,0.000
1718676107.026,103.516,-8.301,-35.645,117.676,0.000
1718676107.030,60.547,-9.277,-68.359,97.656,0.000
1718676107.034,0.000,-0.488,61.523,89.355,0.000
1718676107.038,0.000,6.348,87.402,97.656,0.000
1718676107.042,0.000,-3.906,14.160,107.910,0.000
1718676107.046,0.000,-1.465,72.266,102.051,0.000
1718676107.050,0.000,-1.953,87.402,77.637,0.000
1718676107.054,0.000,-34.668,-171.387,68.848,0.000
1718676107.058,0.000,-44.434,-251.465,75.684,0.000
1718676107.062,0.000,-13.672,-46.875,83.496,0.000
1718676107.066,0.000,3.906,130.859,65.918,0.000
1718676107.070,0.000,-11.719,128.906,41.992,0.000
1718676107.073,0.000,-44.922,-136.719,39.062,0.000
1718676107.077,0.000,-41.504,-243.164,50.293,0.000
1718676107.081,67.871,-13.184,43.945,57.129,0.000
1718676107.085,60.547,-23.926,31.250,60.059,0.000
1718676107.089,30.762,-43.945,-168.945,50.781,0.000
1718676107.093,3.906,-20.508,2.930,37.598,0.000
1718676107.097,22.949,-3.906,117.676,39.551,0.000
1718676107.101,63.477,-35.645,-66.406,54.199,0.000
1718676107.105,67.383,-52.246,-190.918,63.965,0.000
1718676107.108,22.949,-23.438,20.508,38.574,0.000
1718676107.112,-3.906,-13.672,136.230,9.766,0.000
1718676107.116,18.066,-35.156,-26.367,24.902,0.000
1718676107.120,48.828,-69.824,-311.523,53.223,0.000
1718676107.124,46.387,-24.414,-9.766,40.527,0.000
1718676107.128,26.855,3.418,186.035,37.598,0.000
1718676107.132,1.953,-25.391,6.348,40.527,0.000
1718676107.136,3.418,-19.531,-32.715,13.184,0.000
1718676107.139,33.691,-7.812,49.316,1.953,0.000
1718676107.143,47.852,-0.977,105.469,5.859,0.000
1718676107.147,22.461,-23.438,-45.410,9.277,0.000
1718676107.151,-14.160,-37.598,-137.207,4.883,0.000
1718676107.155,1.953,-1.465,65.430,-7.812,0.000
1718676107.159,22.461,4.395,118.164,-0.488,0.000
1718676107.163,22.461,-16.113,12.695,14.160,0.000
1718676107.167,9.277,-16.113,48.828,19.043,0.000
1718676107.171,-18.555,-17.090,-21.973,6.348,0.000
1718676107.174,-23.926,-24.902,-27.832,1.953,0.000
1718676107.178,9.277,-27.344,-79.590,8.789,0.000
1718676107.182,28.320,-12.207,25.391,7.324,0.000
1718676107.186,5.859,-8.301,158.203,-0.977,0.000
1718676107.190,-23.926,-24.414,58.105,-12.207,0.000
1718676107.194,-29.297,-49.316,-256.348,-10.254,0.000
1718676107.198,-5.371,-41.504,-283.691,3.418,0.000
1718676107.202,26.855,-9.277,-19.531,16.602,0.000
1718676107.206,9.277,-11.230,59.570,2.930,0.000
1718676107.210,-31.250,-34.180,-154.297,-14.648,0.000
1718676107.214,-41.992,-18.066,-30.762,-17.578,0.000
1718676107.217,-6.348,-14.648,119.141,-9.277,0.000
1718676107.222,0.000,-26.855,0.000,4.883,0.000
1718676107.225,0.000,-29.785,0.000,11.230,0.000
1718676107.229,0.000,-18.066,0.000,-44.434,0.000
1718676107.233,0.000,-19.043,0.000,-75.684,0.000
1718676107.237,0.000,-37.598,0.000,-34.668,0.000
1718676107.241,0.000,-49.805,0.000,-5.371,0.000
1718676107.245,0.000,-20.020,0.000,-13.672,0.000
1718676107.249,0.000,-6.836,0.000,-46.875,0.000
1718676107.253,0.000,-37.109,0.000,-58.105,0.000
1718676107.257,0.000,-36.621,0.000,-61.523,0.000
1718676107.261,0.000,-7.324,0.000,-69.336,0.000
1718676107.265,0.000,-20.996,0.000,-63.477,0.000
1718676107.267,-97.168,-23.926,10.254,-81.543,0.000
1718676107.271,-128.906,-6.836,-51.758,-113.770,0.000
1718676107.275,-119.141,6.836,46.387,-115.234,0.000
1718676107.279,-90.332,-5.859,37.598,-99.609,0.000
1718676107.283,-99.609,-20.508,-131.348,-110.352,0.000
1718676107.286,-151.855,-34.180,-241.211,-142.578,0.000
1718676107.290,-211.914,-19.531,-35.156,-189.941,0.000
1718676107.294,-226.562,-14.160,115.234,-218.262,0.000
1718676107.298,-208.496,-63.477,-149.902,-213.379,0.000
1718676107.302,-229.004,-13.672,-203.613,-240.723,0.000
1718676107.306,-303.711,0.488,46.387,-308.105,0.000
1718676107.310,-368.652,-46.387,-37.109,-352.539,0.000
1718676107.314,-357.910,-33.203,-131.348,-334.961,0.000
1718676107.318,-307.129,-4.883,66.895,-309.570,0.000
1718676107.322,-290.039,-1.953,90.332,-302.734,0.000
1718676107.326,-304.688,-4.395,4.395,-304.688,0.000
1718676107.330,-328.613,-15.137,-93.262,-328.125,0.000
1718676107.333,-323.730,-22.949,-226.562,-325.195,0.000
1718676107.337,-289.062,-5.859,-101.074,-312.988,0.000
1718676107.341,-269.531,-17.578,-58.594,-301.270,0.000
1718676107.345,-269.531,-29.785,-170.410,-283.203,0.000
1718676107.349,-306.641,20.020,98.633,-294.434,0.000
1718676107.353,-304.199,21.484,105.957,-288.574,0.000
1718676107.357,-249.512,-4.395,-49.316,-268.066,0.000
1718676107.361,-205.078,27.832,95.703,-235.352,0.000
1718676107.365,-219.238,35.645,175.781,-223.633,0.000
1718676107.369,-250.000,0.000,41.504,-230.957,0.000
1718676107.373,-254.395,-2.441,1.953,-233.398,0.000
1718676107.377,-216.797,16.602,144.043,-228.516,0.000
1718676107.380,-162.598,24.414,160.156,-194.824,0.000
1718676107.384,-169.434,20.508,87.402,-183.105,0.000
1718676107.388,-200.195,-15.137,-123.047,-182.617,0.000
1718676107.392,-206.055,14.648,88.379,-189.941,0.000
1718676107.396,-167.969,47.363,304.688,-186.035,0.000
1718676107.400,-119.141,18.066,193.359,-150.879,0.000
1718676107.404,-130.859,-1.953,83.008,-134.766,0.000
1718676107.408,-164.062,24.414,208.984,-142.578,0.000
1718676107.412,-179.688,29.297,235.840,-151.367,0.000
1718676107.416,-139.160,10.742,174.316,-128.418,0.000
1718676107.420,-79.102,17.090,229.980,-94.727,0.000
1718676107.423,-81.543,25.391,244.141,-100.098,0.000
1718676107.427,-112.793,1.953,165.039,-129.395,0.000
1718676107.431,-117.676,-16.113,106.445,-123.047,0.000
1718676107.435,-88.379,4.395,168.945,-73.242,0.000
1718676107.439,-43.945,28.320,239.258,-50.293,0.000
1718676107.443,-14.648,26.367,250.488,-43.457,0.000
1718676107.447,-19.043,-11.719,111.816,-18.066,0.000
1718676107.451,-35.645,-21.973,64.453,-12.695,0.000
1718676107.455,-9.277,17.578,210.938,-14.648,0.000
1718676107.458,45.410,19.531,201.660,19.043,0.000
1718676107.462,63.477,-22.949,-21.973,56.152,0.000
1718676107.466,36.621,-8.301,92.773,46.875,0.000
1718676107.470,14.648,8.789,204.102,33.203,0.000
1718676107.474,47.363,-23.438,-15.137,58.105,0.000
1718676107.478,100.098,-56.152,-283.203,90.332,0.000
1718676107.482,97.168,-33.203,-83.984,83.496,0.000
1718676107.486,63.477,11.230,224.609,64.453,0.000
1718676107.490,45.410,-5.859,74.707,65.430,0.000
1718676107.494,59.570,-20.996,-24.902,79.102,0.000
1718676107.498,107.422,-3.418,119.141,99.121,0.000
1718676107.501,127.930,-4.395,173.340,103.516,0.000
1718676107.505,109.375,-18.555,101.562,97.656,0.000
1718676107.509,72.266,-32.227,9.277,93.750,0.000
1718676107.513,71.289,-25.879,64.941,99.121,0.000
1718676107.517,115.234,-24.414,109.375,105.957,0.000
1718676107.521,142.578,-47.363,-66.406,123.535,0.000
1718676107.525,120.605,-44.434,-103.516,129.395,0.000
1718676107.529,81.543,-13.672,99.609,106.445,0.000
1718676107.533,67.871,-19.531,83.984,100.586,0.000
1718676107.536,99.121,-43.945,-120.117,124.023,0.000
1718676107.540,144.043,-44.922,-207.031,141.602,0.000
1718676107.544,131.836,-27.344,-1.465,133.789,0.000
1718676107.549,86.426,-21.973,0.000,117.676,0.000
1718676107.552,79.590,-37.109,0.000,118.652,0.000
1718676107.556,105.957,-30.762,0.000,135.254,0.000
1718676107.560,139.160,-12.695,0.000,133.789,0.000
1718676107.564,128.418,-17.090,0.000,130.859,0.000
1718676107.568,93.262,-48.828,0.000,131.836,0.000
1718676107.572,73.730,-38.574,0.000,113.770,0.000
1718676107.576,90.820,-11.230,0.000,103.516,0.000
1718676107.580,127.930,-20.508,0.000,125.000,0.000
1718676107.584,124.512,-36.621,0.000,128.418,0.000
1718676107.588,91.797,-19.043,0.000,109.375,0.000
1718676107.592,55.664,-16.602,0.000,96.680,0.000
1718676107.596,63.477,-44.434,-80.078,105.469,0.000
1718676107.600,112.305,-51.758,-147.949,120.117,0.000
1718676107.603,108.887,-20.508,80.078,117.676,0.000
1718676107.607,72.266,-23.438,111.816,107.910,0.000
1718676107.611,60.547,-46.875,-94.727,100.098,0.000
1718676107.615,78.125,-52.734,-235.840,103.027,0.000
1718676107.619,110.840,-32.715,-109.863,109.863,0.000
1718676107.623,113.770,-10.742,97.168,111.328,0.000
1718676107.627,73.242,-44.434,-110.352,102.539,0.000
1718676107.631,46.875,-65.430,-233.398,88.867,0.000
1718676107.635,48.340,-31.250,-31.738,81.543,0.000
1718676107.639,77.148,-36.621,-156.738,83.984,0.000
1718676107.643,92.773,-37.598,-205.566,95.703,0.000
1718676107.647,56.152,-20.020,31.250,75.195,0.000
1718676107.651,22.949,-22.461,113.770,48.828,0.000
1718676107.655,42.480,-47.852,-76.172,66.895,0.000
1718676107.659,84.961,-53.711,-258.301,85.449,0.000
1718676107.663,92.285,-38.574,-159.180,82.031,0.000
1718676107.667,51.758,-30.762,70.312,62.988,0.000
1718676107.671,18.066,-38.086,29.785,47.363,0.000
1718676107.675,25.879,-56.641,-221.191,50.781,0.000
1718676107.679,50.293,-29.297,-15.625,57.617,0.000
1718676107.682,64.941,-17.090,161.133,55.664,0.000
1718676107.686,31.738,-39.551,41.992,37.109,0.000
1718676107.690,-1.465,-60.547,-116.211,18.555,0.000
1718676107.694,-0.977,-39.551,-37.598,19.043,0.000
1718676107.698,29.785,-24.902,98.633,35.645,0.000
1718676107.702,68.848,-37.598,-2.930,40.039,0.000
1718676107.706,41.504,-39.551,-54.688,29.785,0.000
1718676107.710,-9.766,-44.922,-91.309,19.043,0.000
1718676107.714,-10.742,-47.363,-208.008,22.461,0.000
1718676107.718,20.508,-42.969,-210.449,37.109,0.000
1718676107.722,47.852,-26.367,-28.320,41.992,0.000
1718676107.725,45.410,-7.812,164.062,32.715,0.000
1718676107.729,4.395,-22.461,56.152,25.879,0.000
1718676107.733,-11.230,-62.012,-275.391,12.695,0.000
1718676107.737,15.625,-50.781,-170.898,7.812,0.000
1718676107.741,37.598,-7.324,175.781,16.113,0.000
1718676107.745,30.273,-23.926,117.676,16.602,0.000
1718676107.749,-5.859,-49.316,-80.566,4.883,0.000
1718676107.753,-26.367,-34.668,-18.066,-2.441,0.000
1718676107.757,-6.348,-37.109,-37.109,-0.488,0.000
1718676107.761,27.344,-43.457,-101.562,13.184,0.000
1718676107.764,26.855,-56.641,-255.859,30.273,0.000
1718676107.768,-14.160,-32.715,-92.773,3.418,0.000
1718676107.772,-34.180,-12.207,62.500,-8.301,0.000
1718676107.776,-0.488,-21.484,-8.789,11.230,0.000
1718676107.780,39.062,-15.625,-8.789,18.555,0.000
1718676107.784,0.000,-8.301,120.117,17.578,0.000
1718676107.788,0.000,-15.137,138.184,7.812,0.000
1718676107.792,0.000,-29.297,5.371,-0.488,0.000
1718676107.796,0.000,-27.832,-32.227,-6.348,0.000
1718676107.800,0.000,-17.090,85.449,5.859,0.000
1718676107.803,0.000,-32.715,16.113,15.137,0.000
1718676107.807,0.000,-43.945,-92.773,0.488,0.000
1718676107.811,0.000,-28.320,-60.547,-11.719,0.000
1718676107.815,0.000,-14.648,74.707,-2.441,0.000
1718676107.819,0.000,-18.555,114.746,12.207,0.000
1718676107.823,0.000,-45.898,-67.871,26.855,0.000
1718676107.827,0.000,-53.223,-154.785,15.137,0.000
1718676107.831,-56.641,-22.949,23.926,-21.973,0.000
1718676107.835,-41.504,-23.438,51.758,-13.184,0.000
1718676107.839,-5.371,-41.016,-117.188,2.930,0.000
1718676107.843,0.488,-22.461,17.578,5.371,0.000
1718676107.847,-23.438,-13.672,177.246,2.930,0.000
1718676107.851,-58.105,-45.898,-77.148,-20.996,0.000
1718676107.855,-42.969,-82.520,-391.602,-20.508,0.000
1718676107.859,-6.836,-41.992,-135.742,-0.488,0.000
1718676107.863,16.113,6.836,180.664,-1.465,0.000
1718676107.866,-8.301,-14.648,87.402,-11.230,0.000
1718676107.870,-54.199,-35.645,-20.996,-24.902,0.000
1718676107.874,-56.152,-27.832,59.570,-34.668,0.000
1718676107.879,0.000,-24.902,105.957,-23.438,0.000
1718676107.882,0.000,-39.062,12.207,-3.906,0.000
1718676107.886,0.000,-44.922,-113.281,-5.371,0.000
1718676107.890,0.000,-22.461,53.711,-14.648,0.000
1718676107.894,0.000,-23.438,83.008,-27.344,0.000
1718676107.898,0.000,-49.805,-217.773,-28.809,0.000
1718676107.902,0.000,-38.574,-151.367,-6.348,0.000
1718676107.906,0.000,-7.324,108.398,-20.508,0.000
1718676107.910,0.000,-14.160,83.008,-40.039,0.000
1718676107.914,0.000,-40.527,-68.848,-25.879,0.000
1718676107.918,0.000,-51.270,-179.199,-2.930,0.000
1718676107.922,0.000,-39.062,-125.977,-0.488,0.000
1718676107.924,-23.926,-20.020,97.168,-18.555,0.000
1718676107.928,10.742,-51.270,-129.395,-18.066,0.000
1718676107.932,-3.906,-52.734,-185.059,-25.391,0.000
1718676107.936,-54.199,-20.508,97.168,-26.367,0.000
1718676107.940,-57.129,-26.367,91.309,-1.465,0.000
1718676107.944,-20.020,-46.875,-85.449,-2.930,0.000
1718676107.948,1.953,-49.316,-182.617,-32.227,0.000
1718676107.951,-20.020,-34.668,-41.016,-56.641,0.000
1718676107.955,-46.387,-40.039,25.391,-34.180,0.000
1718676107.959,-64.453,-72.266,-327.148,0.000,0.000
1718676107.963,-43.457,-32.715,-108.398,-6.836,0.000
1718676107.967,6.348,-6.348,200.684,-28.320,0.000
1718676107.970,-1.953,-37.598,14.160,-46.387,0.000
1718676107.973,-40.527,-41.016,-86.426,-42.480,0.000
1718676107.977,-63.477,-20.020,71.777,-25.879,0.000
1718676107.981,-45.410,-13.672,139.160,-23.438,0.000
1718676107.985,-2.441,-34.668,17.578,-29.785,0.000
1718676107.989,1.465,-60.547,-213.867,-41.504,0.000
1718676107.993,-39.062,-43.945,-160.156,-44.922,0.000
1718676107.997,-82.520,-21.973,54.199,-30.273,0.000
1718676108.001,-62.012,-49.805,-55.664,-17.090,0.000
1718676108.005,6.348,-49.805,-113.281,-8.789,0.000
1718676108.009,6.348,-22.949,70.801,-33.203,0.000
1718676108.013,-29.785,-44.922,-64.453,-54.199,0.000
1718676108.015,-52.246,-51.758,-200.684,-32.715,0.000
1718676108.019,-56.641,-27.344,38.574,-22.461,0.000
1718676108.023,-18.555,-18.555,173.340,-41.016,0.000
1718676108.027,6.348,-34.668,65.430,-55.664,0.000
1718676108.031,-24.902,-57.129,-234.863,-47.363,0.000
1718676108.035,-58.105,-45.898,-271.973,-26.855,0.000
1718676108.038,-40.039,-20.996,-21.484,-18.555,0.000
1718676108.042,2.930,-19.043,81.055,-25.391,0.000
1718676108.046,1.465,-70.312,-283.203,-24.414,0.000
1718676108.050,-25.879,-51.758,-171.875,-29.785,0.000
1718676108.054,-45.898,-21.973,13.672,-37.598,0.000
1718676108.058,-43.457,-26.367,-24.902,-15.137,0.000
1718676108.060,-14.648,-20.020,0.977,-9.766,0.000
1718676108.064,-1.953,-23.926,60.059,-32.715,0.000
1718676108.068,-25.391,-32.715,43.945,-36.133,0.000
1718676108.072,-63.965,-33.203,17.090,-10.742,0.000
1718676108.076,-71.777,-24.414,59.570,-0.488,0.000
1718676108.080,-33.203,-39.062,10.254,-4.883,0.000
1718676108.084,3.418,-42.969,22.949,-17.578,0.000
1718676108.088,-18.066,-59.082,-153.320,-26.855,0.000
1718676108.092,-66.406,-73.242,-294.434,-18.555,0.000
1718676108.096,-74.219,-12.695,78.613,-15.625,0.000
1718676108.100,-57.617,-19.043,95.215,-11.230,0.000
1718676108.103,-7.324,-55.664,-87.402,-23.438,0.000
1718676108.106,-7.812,-48.340,-105.469,-32.715,0.000
1718676108.110,-62.988,-41.992,-158.203,-16.113,0.000
1718676108.114,-72.266,-26.855,-10.742,-12.207,0.000
1718676108.118,-37.109,-29.785,-0.977,1.953,0.000
1718676108.122,1.953,-29.785,10.742,-20.996,0.000
1718676108.125,-10.254,-33.203,-125.977,-34.668,0.000
1718676108.129,-61.523,-44.434,-253.906,-17.090,0.000
1718676108.133,-72.754,-69.824,-343.750,0.977,0.000
1718676108.137,-36.621,-33.203,-70.801,13.672,0.000
1718676108.141,-9.277,-2.930,175.781,-14.648,0.000
1718676108.145,-28.809,-36.133,14.160,-37.109,0.000
1718676108.149,-57.617,-39.551,-82.520,-23.438,0.000
1718676108.153,-24.902,-26.855,48.340,-0.977,0.000
1718676108.157,-0.977,-17.578,110.840,6.348,0.000
1718676108.161,-17.578,-26.367,44.922,13.184,0.000
1718676108.165,-57.617,-44.922,-144.043,5.859,0.000
1718676108.169,-49.805,-38.086,-124.023,3.418,0.000
1718676108.173,1.953,-26.855,22.461,23.438,0.000
1718676108.176,21.484,-35.645,-53.711,22.949,0.000
1718676108.180,3.906,-46.387,-199.219,25.879,0.000
1718676108.184,-42.969,-14.648,55.664,6.836,0.000
1718676108.188,-49.316,-8.789,142.090,-5.371,0.000
1718676108.192,6.836,-39.062,-102.051,15.625,0.000
1718676108.196,36.621,-36.621,-100.586,24.414,0.000
1718676108.200,1.953,-8.789,125.977,18.066,0.000
1718676108.204,-42.480,-17.090,84.961,7.812,0.000
1718676108.208,-43.945,-42.480,-108.887,8.301,0.000
1718676108.212,-10.254,-32.227,20.508,18.066,0.000
1718676108.216,26.855,-21.973,155.762,16.602,0.000
1718676108.219,9.766,-44.434,4.395,9.277,0.000
1718676108.223,-33.691,-82.031,-319.824,11.230,0.000
1718676108.227,-38.574,-52.246,-159.180,16.602,0.000
1718676108.231,-11.230,-8.301,157.715,22.461,0.000
1718676108.235,35.645,-19.531,94.238,26.367,0.000
1718676108.239,26.367,-33.691,7.812,33.691,0.000
1718676108.243,-25.391,-20.508,104.980,10.742,0.000
1718676108.247,-37.109,-21.484,141.602,-0.488,0.000
1718676108.251,-7.324,-28.809,53.711,16.113,0.000
1718676108.255,30.273,-25.391,63.477,41.016,0.000
1718676108.259,26.855,-12.695,141.113,42.480,0.000
1718676108.262,-7.324,-18.066,156.738,24.902,0.000
1718676108.266,-21.973,-49.805,-85.449,8.301,0.000
1718676108.270,-4.395,-41.504,-141.113,14.160,0.000
1718676108.274,32.715,-7.812,133.789,32.715,0.000
1718676108.278,28.320,-16.602,154.785,28.320,0.000
1718676108.282,-15.137,-40.039,-17.578,16.602,0.000
1718676108.286,-40.527,-45.410,-118.652,9.277,0.000
1718676108.290,-18.066,-25.391,23.926,5.371,0.000
1718676108.294,21.973,-11.230,122.559,10.254,0.000
1718676108.298,31.738,-25.879,61.523,24.414,0.000
1718676108.302,-6.836,-18.066,101.562,6.836,0.000
1718676108.306,-49.316,-13.184,137.695,-19.043,0.000
1718676108.310,-20.020,-26.855,50.781,1.465,0.000
1718676108.314,25.391,-41.992,-163.574,31.738,0.000
1718676108.318,26.855,-25.391,-24.902,28.809,0.000
1718676108.322,-15.625,-11.230,180.176,10.742,0.000
1718676108.326,-52.734,-27.344,34.180,-7.324,0.000
1718676108.329,-32.227,-50.293,-180.176,2.930,0.000
1718676108.333,0.977,-22.461,29.297,15.625,0.000
1718676108.337,13.672,-14.160,124.023,14.648,0.000
1718676108.342,0.000,-40.527,-17.578,10.742,0.000
1718676108.346,0.000,-42.969,-66.895,-4.395,0.000
1718676108.349,0.000,-15.625,69.336,-8.301,0.000
1718676108.353,0.000,-10.254,128.418,9.766,0.000
1718676108.357,0.000,-23.926,28.809,29.297,0.000
1718676108.361,0.000,-39.062,-107.422,11.719,0.000
1718676108.365,0.000,-24.414,4.883,-10.742,0.000
1718676108.369,0.000,-13.184,103.516,-11.230,0.000
1718676108.373,0.000,-32.715,-34.668,2.441,0.000
1718676108.377,0.000,-22.461,56.641,6.836,0.000
1718676108.381,0.000,-11.719,169.434,2.930,0.000
1718676108.385,0.000,-43.945,-26.855,-4.883,0.000
1718676108.389,-28.809,-53.711,-181.152,-9.766,0.000
1718676108.393,5.859,-27.832,21.484,8.301,0.000
1718676108.397,21.484,-8.301,105.957,21.973,0.000
1718676108.401,13.184,-2.930,132.812,15.137,0.000
1718676108.404,-20.508,-42.969,-121.094,1.465,0.000
1718676108.408,-42.969,-44.922,-212.402,-9.277,0.000
1718676108.412,-11.719,-7.324,83.008,-12.207,0.000
1718676108.416,26.855,-1.953,116.699,0.000,0.000
1718676108.420,10.254,-44.922,-211.914,11.230,0.000
1718676108.424,-39.062,-19.043,7.324,-7.324,0.000
1718676108.428,-47.363,11.719,216.797,-17.578,0.000
1718676108.432,-8.789,-19.043,40.039,-2.930,0.000
1718676108.436,32.715,-20.508,66.895,-0.488,0.000
1718676108.440,18.066,-2.441,182.129,-3.906,0.000
1718676108.444,-43.945,-6.836,152.344,-21.973,0.000
1718676108.448,-67.871,-27.344,25.879,-36.133,0.000
1718676108.452,-40.527,-25.391,13.184,-41.992,0.000
1718676108.456,2.441,-22.949,29.785,-29.785,0.000
1718676108.459,-0.488,-20.996,77.148,-23.438,0.000
1718676108.463,-32.227,-28.320,-25.391,-27.344,0.000
1718676108.467,-64.941,-45.410,-203.125,-36.621,0.000
1718676108.471,-65.918,-4.883,97.656,-45.898,0.000
1718676108.475,-11.230,-1.953,142.578,-25.879,0.000
1718676108.479,-10.742,-35.156,-3.418,-31.250,0.000
1718676108.483,0.000,-18.555,111.816,-58.105,0.000
1718676108.487,0.000,-1.465,174.316,-61.035,0.000
1718676108.491,0.000,-12.207,97.168,-62.500,0.000
1718676108.495,0.000,-25.879,-29.297,-62.500,0.000
1718676108.499,0.000,-4.395,74.219,-58.594,0.000
1718676108.503,0.000,-4.883,116.211,-66.406,0.000
1718676108.507,0.000,-22.949,-13.184,-94.727,0.000
1718676108.510,0.000,-40.527,-223.145,-114.746,0.000
1718676108.514,0.000,-20.020,5.859,-127.441,0.000
1718676108.518,0.000,-2.441,217.285,-144.043,0.000
1718676108.522,0.000,-1.465,78.125,-162.109,0.000
1718676108.526,0.000,-19.531,-46.875,-193.359,0.000
1718676108.530,-228.516,-19.043,18.066,-228.516,0.000
1718676108.534,-218.750,-7.324,64.941,-248.047,0.000
1718676108.538,-231.934,-13.672,17.578,-264.160,0.000
1718676108.542,-278.320,-18.555,-18.066,-284.180,0.000
1718676108.546,-338.867,-16.602,45.898,-333.496,0.000
1718676108.550,-357.910,-28.809,-95.703,-355.957,0.000
1718676108.554,-306.641,-36.133,-241.211,-330.566,0.000
1718676108.557,-264.160,-34.180,-218.262,-303.711,0.000
1718676108.561,-291.016,2.441,100.586,-316.895,0.000
1718676108.565,-334.961,-2.930,156.738,-348.145,0.000
1718676108.569,-317.871,-23.438,-80.566,-331.543,0.000
1718676108.573,-270.020,-17.578,-121.582,-310.059,0.000
1718676108.577,-253.418,18.066,137.207,-296.875,0.000
1718676108.581,-253.418,10.742,182.129,-273.926,0.000
1718676108.585,-276.855,-22.461,-10.254,-298.828,0.000
1718676108.589,-301.270,-11.230,60.547,-310.547,0.000
1718676108.593,-268.555,-2.930,160.156,-280.762,0.000
1718676108.597,-227.539,-18.555,40.527,-257.812,0.000
1718676108.600,-217.773,-40.039,-201.172,-231.934,0.000
1718676108.604,-237.305,-3.418,1.953,-240.723,0.000
1718676108.608,-262.207,23.926,203.613,-272.949,0.000
1718676108.612,-237.793,-3.906,88.867,-252.930,0.000
1718676108.616,-166.016,-12.207,89.355,-213.867,0.000
1718676108.620,-148.926,17.090,215.820,-205.566,0.000
1718676108.624,0.000,12.207,186.523,-210.938,0.000
1718676108.628,0.000,-19.043,43.945,-219.238,0.000
1718676108.632,0.000,-3.906,109.863,-193.848,0.000
1718676108.636,0.000,22.461,201.660,-167.480,0.000
1718676108.639,0.000,16.602,221.680,-162.598,0.000
1718676108.643,0.000,-12.207,83.496,-158.203,0.000
1718676108.647,0.000,-26.855,-26.367,-157.715,0.000
1718676108.651,0.000,8.789,178.711,-155.762,0.000
1718676108.655,0.000,24.414,208.984,-139.160,0.000
1718676108.659,0.000,5.371,146.484,-119.141,0.000
1718676108.663,0.000,-0.977,166.504,-116.211,0.000
1718676108.667,0.000,0.488,149.414,-131.348,0.000
1718676108.672,-154.297,-0.488,182.129,-134.766,0.000
1718676108.676,-105.469,-5.859,139.648,-134.277,0.000
1718676108.680,-83.496,5.859,207.520,-114.258,0.000
1718676108.683,-113.770,5.859,258.789,-110.352,0.000
1718676108.687,-147.461,-7.324,189.453,-129.883,0.000
1718676108.691,-147.461,-40.039,8.789,-124.512,0.000
1718676108.695,-107.910,-30.273,117.188,-103.516,0.000
1718676108.699,-79.590,7.812,297.363,-93.750,0.000
1718676108.703,-101.562,-20.508,214.844,-101.074,0.000
1718676108.707,-121.582,-70.801,-98.145,-105.469,0.000
1718676108.711,-108.398,-33.203,122.070,-114.258,0.000
1718676108.715,-78.125,-9.766,277.344,-106.445,0.000
1718676108.719,-66.895,-31.250,0.000,-89.844,0.000
1718676108.723,-79.590,-34.180,0.000,-85.449,0.000
1718676108.727,-104.980,-24.902,0.000,-95.215,0.000
1718676108.731,-106.445,-19.531,0.000,-94.727,0.000
1718676108.735,-66.406,-36.133,0.000,-68.359,0.000
1718676108.738,-26.855,-50.293,0.000,-44.922,0.000
1718676108.742,-39.551,-38.086,0.000,-44.922,0.000
1718676108.746,-71.289,-35.645,0.000,-52.734,0.000
1718676108.750,-56.152,-36.133,0.000,-53.711,0.000
1718676108.754,-20.996,-21.484,0.000,-37.109,0.000
1718676108.758,12.695,-20.508,0.000,-7.324,0.000
1718676108.762,18.555,-29.785,0.000,6.348,0.000
1718676108.764,0.977,-40.527,175.781,16.113,0.000
1718676108.768,-11.230,-29.785,214.355,23.438,0.000
1718676108.772,32.227,7.324,210.449,48.828,0.000
1718676108.776,92.773,5.371,184.082,70.801,0.000
1718676108.780,74.707,-18.555,118.652,65.918,0.000
1718676108.784,43.457,-30.762,96.680,73.730,0.000
1718676108.788,43.457,-13.672,124.023,68.848,0.000
1718676108.792,83.984,-5.371,102.539,79.102,0.000
1718676108.796,135.742,-51.270,65.430,110.840,0.000
1718676108.800,140.137,-26.855,141.113,112.305,0.000
1718676108.804,109.375,7.812,150.879,104.492,0.000
1718676108.807,77.637,-13.672,105.957,102.051,0.000
1718676108.812,109.863,-20.996,-63.965,116.699,0.000
1718676108.816,156.250,-5.859,86.914,136.719,0.000
1718676108.820,169.922,1.465,140.137,150.879,0.000
1718676108.824,154.785,-10.254,41.504,153.809,0.000
1718676108.828,117.676,-17.090,-34.180,145.508,0.000
1718676108.832,140.137,-23.926,-183.594,162.598,0.000
1718676108.836,189.941,-5.859,-84.473,172.852,0.000
1718676108.840,200.684,-10.742,-46.875,178.223,0.000
1718676108.843,174.805,-31.250,-202.148,187.988,0.000
1718676108.847,137.695,6.836,69.336,169.434,0.000
1718676108.851,142.090,4.395,78.613,159.668,0.000
1718676108.855,182.129,-24.414,-202.148,169.922,0.000
1718676108.859,201.172,-11.230,0.000,182.617,0.000
1718676108.863,175.781,16.113,0.000,165.039,0.000
1718676108.867,138.672,2.930,0.000,146.973,0.000
1718676108.871,122.070,-25.879,0.000,149.902,0.000
1718676108.875,150.879,-10.254,0.000,167.480,0.000
1718676108.879,174.316,-9.277,0.000,168.945,0.000
1718676108.883,157.227,-23.438,0.000,169.434,0.000
1718676108.887,121.094,-30.273,0.000,153.809,0.000
1718676108.890,106.934,-17.090,0.000,136.230,0.000
1718676108.894,143.555,-2.441,0.000,145.508,0.000
1718676108.898,173.828,-17.578,0.000,159.180,0.000
1718676108.902,146.973,-57.617,0.000,171.875,0.000
1718676108.906,85.938,-26.855,-6.836,141.602,0.000
1718676108.910,80.078,-3.418,105.469,116.211,0.000
1718676108.914,121.582,-25.391,-97.656,127.441,0.000
1718676108.918,145.508,-11.230,-30.762,140.137,0.000
1718676108.922,124.512,-4.395,110.840,133.789,0.000
1718676108.926,76.660,-30.762,7.812,118.652,0.000
1718676108.930,60.547,-51.758,-248.535,113.281,0.000
1718676108.933,77.637,-55.664,-285.156,116.211,0.000
1718676108.937,114.258,-11.719,77.637,116.211,0.000
1718676108.941,115.723,-4.395,163.574,120.605,0.000
1718676108.945,72.266,-38.086,-78.125,106.934,0.000
1718676108.949,46.387,-48.828,-213.867,84.473,0.000
1718676108.953,63.965,-26.367,33.203,84.961,0.000
1718676108.957,99.121,-23.438,94.238,91.797,0.000
1718676108.961,97.168,-32.715,-79.102,94.238,0.000
1718676108.965,55.176,-21.484,39.062,75.684,0.000
1718676108.969,15.625,-22.949,110.352,43.945,0.000
1718676108.973,41.504,-46.387,-117.188,52.246,0.000
1718676108.977,86.914,-61.035,-328.613,69.336,0.000
1718676108.980,70.801,-22.949,3.418,58.594,0.000
1718676108.984,30.273,-6.836,202.637,49.805,0.000
1718676108.988,6.836,-35.645,-1.465,43.457,0.000
1718676108.992,20.996,-51.758,-164.062,51.270,0.000
1718676108.996,61.523,-22.461,25.391,55.664,0.000
1718676109.000,63.477,-7.812,160.156,41.504,0.000
1718676109.004,37.109,-30.762,35.156,40.039,0.000
1718676109.008,-2.441,-45.898,-63.965,32.227,0.000
1718676109.012,-4.883,-29.785,61.523,24.902,0.000
1718676109.015,38.574,-25.879,105.957,35.156,0.000
1718676109.019,56.152,-52.246,-102.539,44.922,0.000
1718676109.023,27.832,-79.102,-333.008,50.293,0.000
1718676109.027,-14.160,-41.016,-35.156,16.113,0.000
1718676109.031,-4.883,-23.438,83.008,0.000,0.000
1718676109.035,28.320,-40.527,-64.941,23.438,0.000
1718676109.039,36.133,-34.668,38.086,40.039,0.000
1718676109.043,20.508,-32.227,59.570,34.180,0.000
1718676109.047,0.000,-33.203,53.711,14.160,0.000
1718676109.051,0.000,-43.945,-57.129,18.066,0.000
1718676109.055,0.000,-33.203,31.738,35.156,0.000
1718676109.059,0.000,-15.625,150.879,43.457,0.000
1718676109.063,0.000,-27.832,80.078,36.133,0.000
1718676109.067,0.000,-61.523,-190.918,16.602,0.000
1718676109.071,0.000,-56.641,-275.391,6.348,0.000
1718676109.074,0.000,-21.484,58.594,6.348,0.000
1718676109.078,0.000,-20.996,109.863,24.414,0.000
1718676109.082,0.000,-63.477,-291.016,41.504,0.000
1718676109.086,0.000,-45.410,-174.316,7.324,0.000
1718676109.090,0.000,-11.719,121.094,-8.301,0.000
1718676109.093,-15.137,-26.855,22.461,11.230,0.000
1718676109.097,-12.207,-34.180,-46.875,21.484,0.000
1718676109.101,19.043,-22.461,82.520,30.762,0.000
1718676109.104,40.039,-25.879,121.094,20.020,0.000
1718676109.108,27.344,-45.898,-27.832,-1.465,0.000
1718676109.112,-17.090,-58.594,-220.703,12.695,0.000
1718676109.116,-33.203,-35.156,-110.840,26.855,0.000
1718676109.120,-12.695,-10.742,142.090,11.230,0.000
1718676109.124,33.691,-45.898,-44.922,2.441,0.000
1718676109.128,39.062,-68.359,-236.816,0.977,0.000
1718676109.132,-4.883,-25.391,12.207,5.859,0.000
1718676109.136,-23.926,-26.855,29.297,24.414,0.000
1718676109.140,28.320,-43.457,-72.754,19.043,0.000
1718676109.144,-13.672,-34.180,0.488,-10.254,0.000
1718676109.148,-56.641,-19.531,108.398,-34.180,0.000
1718676109.152,-32.715,-28.320,83.008,-20.020,0.000
1718676109.156,15.625,-44.922,-55.176,12.695,0.000
1718676109.159,31.250,-33.203,-23.438,23.438,0.000
1718676109.163,7.324,-23.438,69.336,4.395,0.000
1718676109.167,-16.113,-32.227,-59.570,-9.277,0.000
1718676109.171,-13.184,-57.617,-330.078,9.766,0.000
1718676109.175,9.766,-20.020,-37.598,23.438,0.000
1718676109.179,27.832,11.719,192.383,23.926,0.000
1718676109.183,-1.465,-13.672,65.918,14.648,0.000
1718676109.187,-43.945,-27.344,-20.996,-10.254,0.000
1718676109.191,-40.039,-18.555,83.984,-20.508,0.000
1718676109.195,4.883,-21.484,87.402,-4.395,0.000
1718676109.199,24.902,-32.227,10.254,7.812,0.000
1718676109.203,-4.395,-25.879,76.172,2.441,0.000
1718676109.206,-39.062,-35.156,-45.410,-10.742,0.000
1718676109.210,-37.109,-30.762,-90.332,-15.137,0.000
1718676109.214,1.953,-30.762,-39.062,-0.977,0.000
1718676109.218,24.414,-27.832,-31.250,6.836,0.000
1718676109.222,-8.301,-6.348,149.414,1.465,0.000
1718676109.226,-53.711,-25.391,60.547,-11.719,0.000
1718676109.230,-47.363,-54.688,-215.332,-9.277,0.000
1718676109.234,0.000,-34.180,-58.105,0.000,0.000
1718676109.238,0.000,-5.371,157.227,4.883,0.000
1718676109.242,0.000,-16.113,123.535,-0.488,0.000
1718676109.246,0.000,-57.129,-162.109,-18.066,0.000
1718676109.250,0.000,-47.852,-144.531,-13.184,0.000
1718676109.254,0.000,-26.367,-41.016,-6.836,0.000
1718676109.257,0.000,-29.785,-162.598,-3.906,0.000
1718676109.261,0.000,-48.828,-246.094,9.766,0.000
1718676109.265,0.000,-26.855,-14.648,-9.277,0.000
1718676109.269,0.000,1.465,166.016,-35.645,0.000
1718676109.273,0.000,-21.484,25.879,-29.785,0.000
1718676109.277,0.000,-27.832,-14.648,-15.137,0.000
1718676109.279,-12.207,-10.254,120.605,-13.672,0.000
1718676109.283,12.695,-12.207,144.043,-30.762,0.000
1718676109.287,-1.465,-30.762,6.348,-32.227,0.000
1718676109.291,-32.715,-32.715,-73.730,-14.160,0.000
1718676109.295,-38.086,-23.926,61.523,-0.977,0.000
1718676109.299,-20.020,-33.203,43.457,-0.977,0.000
1718676109.303,9.277,-48.340,-95.703,-14.648,0.000
1718676109.307,0.488,-64.941,-266.602,-16.602,0.000
1718676109.311,-45.410,-37.109,-62.500,-17.090,0.000
1718676109.314,-50.293,-37.109,41.016,-13.672,0.000
1718676109.318,-13.672,-51.270,-1.465,-8.789,0.000
1718676109.322,24.902,-46.387,38.086,-20.020,0.000
1718676109.325,6.348,-32.227,129.395,-31.738,0.000
1718676109.329,-45.410,-40.039,86.426,-28.320,0.000
1718676109.332,-56.641,-64.941,-149.902,-2.441,0.000
1718676109.336,-24.414,-37.109,4.395,6.348,0.000
1718676109.340,11.719,-19.531,178.711,-6.836,0.000
1718676109.344,7.812,-48.340,-56.641,-20.996,0.000
1718676109.348,-23.926,-79.590,-382.324,-7.324,0.000
1718676109.352,-40.039,-43.457,-132.324,8.789,0.000
1718676109.356,-31.738,-5.371,189.941,-0.488,0.000
1718676109.360,-8.789,-26.367,65.918,-8.301,0.000
1718676109.364,0.488,-48.828,-37.598,-24.902,0.000
1718676109.368,-24.414,-46.875,-7.812,-27.832,0.000
1718676109.372,-4.883,-39.062,27.344,-8.789,0.000
1718676109.376,21.973,-36.133,20.996,-5.859,0.000
1718676109.380,-2.930,-26.855,18.555,-14.648,0.000
1718676109.384,-54.688,-26.855,83.496,-30.762,0.000
1718676109.388,-57.617,-28.809,82.031,-32.227,0.000
1718676109.392,-8.301,-58.594,-208.008,-1.953,0.000
1718676109.396,22.461,-78.613,-334.961,19.043,0.000
1718676109.399,3.906,-22.461,85.938,9.766,0.000
1718676109.403,-34.668,-18.066,106.445,-7.324,0.000
1718676109.407,-42.969,-44.922,-101.074,-17.090,0.000
1718676109.411,-12.207,-40.039,-1.953,-10.254,0.000
1718676109.415,28.809,-31.250,41.016,11.230,0.000
1718676109.420,0.000,-20.020,104.492,13.672,0.000
1718676109.423,0.000,-40.039,-37.598,-2.441,0.000
1718676109.427,0.000,-49.805,-153.320,-32.227,0.000
1718676109.431,0.000,-27.344,45.898,-28.809,0.000
1718676109.435,0.000,-20.996,119.141,-3.906,0.000
1718676109.439,0.000,-52.246,-149.414,-3.418,0.000
1718676109.443,0.000,-44.922,-129.395,-18.555,0.000
1718676109.447,0.000,-20.020,98.633,-29.785,0.000
1718676109.451,0.000,-35.156,-10.254,-20.996,0.000
1718676109.455,0.000,-46.875,-212.891,3.418,0.000
1718676109.459,0.000,-18.066,-11.230,4.395,0.000
1718676109.463,0.000,-10.254,132.324,-13.672,0.000
1718676109.465,16.602,-42.480,-38.086,-22.461,0.000
1718676109.469,-42.969,-68.848,-316.895,-8.789,0.000
1718676109.473,-58.105,-22.461,-27.832,-5.371,0.000
1718676109.477,-27.832,-7.324,151.855,-6.348,0.000
1718676109.481,5.859,-38.086,-53.223,-9.277,0.000
1718676109.485,10.254,-51.270,-221.191,-29.785,0.000
1718676109.489,-27.344,-44.434,-221.680,-27.832,0.000
1718676109.493,-63.477,-15.625,51.758,-6.836,0.000
1718676109.496,-46.875,-35.645,-40.527,0.000,0.000
1718676109.500,5.859,-60.547,-245.605,-11.230,0.000
1718676109.504,7.812,-29.297,-24.902,-34.668,0.000
1718676109.508,-29.297,-32.715,-111.816,-35.156,0.000
1718676109.511,-45.410,-32.227,-207.031,-19.531,0.000
1718676109.515,-38.086,-8.301,62.500,-14.160,0.000
1718676109.519,-12.207,2.441,182.129,-20.508,0.000
1718676109.523,-3.906,-15.137,93.750,-29.297,0.000
1718676109.527,-35.645,-39.551,-92.773,-26.855,0.000
1718676109.530,-71.777,-44.434,-211.426,-12.695,0.000
1718676109.534,-51.758,-25.391,-68.359,-4.395,0.000
1718676109.538,5.371,-23.438,52.734,-14.648,0.000
1718676109.542,12.207,-69.824,-311.523,-20.020,0.000
1718676109.546,-30.273,-36.621,-160.645,-18.555,0.000
1718676109.550,-61.523,-6.348,168.945,-6.836,0.000
1718676109.554,-53.223,-23.438,71.289,1.953,0.000
1718676109.557,-14.160,-23.926,34.180,-16.602,0.000
1718676109.560,1.953,-20.508,87.891,-34.668,0.000
1718676109.564,-24.902,-23.926,77.637,-27.344,0.000
1718676109.568,-59.082,-32.715,6.836,-19.531,0.000
1718676109.572,-48.340,-29.785,-37.109,-13.184,0.000
1718676109.576,-5.371,-33.203,-5.859,-14.648,0.000
1718676109.580,10.742,-29.785,0.000,-26.855,0.000
1718676109.584,-17.090,-42.969,-204.102,-25.879,0.000
1718676109.588,-53.711,-55.176,-291.504,-10.254,0.000
1718676109.592,-48.828,-9.766,74.707,-10.254,0.000
1718676109.596,-22.461,-20.508,74.219,-23.438,0.000
1718676109.600,-5.859,-38.086,-80.566,-41.016,0.000
1718676109.604,-46.875,-16.113,46.875,-40.039,0.000
1718676109.608,-30.273,-10.742,131.348,-26.367,0.000
1718676109.612,-4.395,-15.137,98.633,-16.113,0.000
1718676109.615,5.859,-28.320,-36.621,-15.625,0.000
1718676109.619,-38.086,-26.367,36.133,-25.879,0.000
1718676109.623,-63.477,-35.645,-16.602,-38.086,0.000
1718676109.627,-29.785,-48.340,-229.492,-27.344,0.000
1718676109.631,4.883,-59.570,-347.168,5.859,0.000
1718676109.635,-3.906,-25.879,-59.082,0.488,0.000
1718676109.639,-37.109,0.977,177.246,-25.391,0.000
1718676109.643,-62.988,-18.555,47.852,-34.180,0.000
1718676109.647,-45.410,-24.414,-36.133,-22.461,0.000
1718676109.651,-1.465,-20.508,50.293,-8.789,0.000
1718676109.655,0.977,-21.484,67.871,-7.324,0.000
1718676109.659,-34.668,-21.484,61.523,-16.113,0.000
1718676109.663,-63.477,-29.785,-8.301,-25.391,0.000
1718676109.667,-55.664,-27.344,35.645,-32.227,0.000
1718676109.670,-10.254,-35.645,-103.516,-19.531,0.000
1718676109.674,4.883,-35.645,-210.938,-8.789,0.000
1718676109.678,-23.926,-20.996,-56.641,-16.113,0.000
1718676109.682,-60.547,-19.043,68.359,-29.297,0.000
1718676109.686,-54.688,-27.344,61.035,-30.273,0.000
1718676109.690,-7.324,-51.270,-116.699,-12.207,0.000
1718676109.694,5.371,-44.922,-138.184,-6.836,0.000
1718676109.698,-22.461,-15.625,122.559,-25.879,0.000
1718676109.702,-57.129,-29.785,76.660,-40.527,0.000
1718676109.706,-46.387,-63.477,-200.684,-36.133,0.000
1718676109.710,-22.461,-53.711,-155.273,-25.391,0.000
1718676109.714,-14.648,-21.484,61.035,-24.414,0.000
1718676109.718,-19.043,-27.832,18.555,-20.996,0.000
1718676109.721,-57.129,-67.383,-358.398,-25.879,0.000
1718676109.725,-64.941,-43.945,-196.777,-41.016,0.000
1718676109.729,-32.227,-4.395,166.016,-38.574,0.000
1718676109.733,-11.230,-27.832,41.504,-34.668,0.000
1718676109.737,-29.297,-39.062,-30.762,-34.668,0.000
1718676109.741,-64.453,-20.996,83.496,-47.852,0.000
1718676109.745,0.000,-19.531,77.637,-48.828,0.000
1718676109.749,0.000,-30.273,-30.273,-32.227,0.000
1718676109.753,0.000,-24.414,-81.543,-15.137,0.000
1718676109.757,0.000,-11.230,81.055,-12.207,0.000
1718676109.761,0.000,-18.066,71.777,-35.645,0.000
1718676109.765,0.000,-48.828,-245.605,-53.711,0.000
1718676109.768,0.000,-56.152,-339.355,-43.945,0.000
1718676109.772,0.000,-14.648,-49.805,-43.945,0.000
1718676109.776,0.000,-1.465,123.047,-60.059,0.000
1718676109.780,0.000,-13.672,15.137,-88.867,0.000
1718676109.784,0.000,-34.180,-130.859,-113.770,0.000
1718676109.788,0.000,-26.367,-187.500,-137.695,0.000
1718676109.791,-62.500,-19.531,10.254,0.000,0.000
1718676109.795,-25.391,-27.832,-35.645,0.000,0.000
1718676109.799,7.324,-12.695,-0.488,0.000,0.000
1718676109.803,-12.207,-13.184,84.473,0.000,0.000
1718676109.806,-59.570,-9.277,20.508,0.000,0.000
1718676109.810,-73.730,-38.574,-292.969,0.000,0.000
1718676109.814,-41.992,-35.156,-206.055,0.000,0.000
1718676109.818,-22.949,-3.418,142.578,0.000,0.000
1718676109.822,-49.316,-5.371,24.902,0.000,0.000
1718676109.826,-101.074,-40.039,-311.523,0.000,0.000
1718676109.830,-140.137,-2.930,-21.973,0.000,0.000
1718676109.834,-140.137,24.902,204.590,0.000,0.000
1718676109.839,-365.723,9.277,0.000,-368.164,0.000
1718676109.843,-388.672,3.418,0.000,-381.836,0.000
1718676109.847,-353.027,18.066,0.000,-353.516,0.000
1718676109.851,-299.805,35.645,0.000,-319.336,0.000
1718676109.855,-286.621,32.715,0.000,-307.617,0.000
1718676109.858,-291.504,25.879,0.000,-300.293,0.000
1718676109.862,-318.359,31.250,0.000,-309.082,0.000
1718676109.866,-312.012,45.410,0.000,-306.641,0.000
1718676109.870,-260.254,24.414,0.000,-275.391,0.000
1718676109.874,-231.934,8.789,0.000,-255.371,0.000
1718676109.878,-248.535,57.129,0.000,-258.789,0.000
1718676109.882,-276.367,49.316,0.000,-258.789,0.000
1718676109.886,-271.973,29.785,-91.797,-254.883,0.000
1718676109.890,-216.797,60.547,66.895,-234.863,0.000
1718676109.894,-181.152,69.336,204.102,-227.539,0.000
1718676109.898,-192.871,57.129,144.043,-225.098,0.000
1718676109.902,-214.844,40.039,-4.883,-215.820,0.000
1718676109.906,-211.914,36.133,-40.039,-202.637,0.000
1718676109.910,-171.875,55.664,69.336,-187.988,0.000
1718676109.914,-128.906,71.289,119.629,-162.109,0.000
1718676109.917,-139.160,45.898,-55.176,-163.086,0.000
1718676109.921,-178.711,43.457,79.102,-174.805,0.000
1718676109.925,-180.176,50.293,200.684,-172.363,0.000
1718676109.929,-141.602,30.762,83.496,-152.344,0.000
1718676109.933,-97.656,-14.160,-201.172,-114.746,0.000
1718676109.937,-107.910,17.578,46.875,-123.535,0.000
1718676109.941,-150.391,38.574,157.715,-150.391,0.000
1718676109.945,-166.016,10.254,51.270,-154.297,0.000
1718676109.949,-125.000,7.812,128.418,-148.438,0.000
1718676109.953,-81.055,2.441,34.180,-122.559,0.000
1718676109.957,-94.727,18.555,100.098,-124.512,0.000
1718676109.961,-139.160,2.441,38.086,-136.230,0.000
1718676109.965,-153.320,-43.945,-230.469,-133.301,0.000
1718676109.969,-127.441,-5.371,49.316,-133.301,0.000
1718676109.972,-90.332,-8.789,96.191,-115.723,0.000
1718676109.976,-96.680,-35.156,-14.648,-117.188,0.000
1718676109.981,-136.719,-13.672,110.840,-133.789,0.000
1718676109.985,-145.020,-5.859,125.488,-127.930,0.000
1718676109.989,-112.793,-27.344,60.547,-112.305,0.000
1718676109.993,-77.148,-40.039,-41.992,-96.191,0.000
1718676109.997,-67.871,-25.391,37.598,-86.914,0.000
1718676110.001,-96.191,-34.180,40.527,-89.844,0.000
1718676110.005,-130.859,-50.781,-107.910,-102.539,0.000
1718676110.008,-106.934,-74.707,-378.418,-90.820,0.000
1718676110.012,-59.570,-43.457,-185.059,-73.730,0.000
1718676110.016,-46.875,-7.812,141.602,-74.707,0.000
1718676110.020,-75.684,-32.227,48.340,-87.402,0.000
1718676110.024,-101.562,-49.316,-75.684,-92.285,0.000
1718676110.028,0.000,-33.691,5.371,-76.172,0.000
1718676110.032,0.000,-24.902,46.875,-60.547,0.000
1718676110.036,0.000,-29.785,-32.227,-41.016,0.000
1718676110.040,0.000,-25.391,-66.895,-21.973,0.000
1718676110.044,0.000,-17.090,-8.301,-21.484,0.000
1718676110.048,0.000,-28.320,-218.262,-10.254,0.000
1718676110.052,0.000,-31.738,-317.871,20.996,0.000
1718676110.056,0.000,-15.137,-270.508,42.480,0.000
1718676110.059,0.000,7.324,-108.398,41.504,0.000
1718676110.063,0.000,12.695,48.340,46.875,0.000
1718676110.067,0.000,-24.414,-228.027,62.012,0.000
1718676110.071,0.000,-35.156,-287.109,78.613,0.000
1718676110.076,135.254,21.484,36.621,97.656,0.000
1718676110.080,126.465,24.902,34.668,102.051,0.000
1718676110.084,82.520,-13.672,-230.469,97.168,0.000
1718676110.087,76.172,-5.859,-237.305,103.516,0.000
1718676110.091,124.512,11.230,-161.133,121.582,0.000
1718676110.095,173.340,4.395,-246.094,144.043,0.000
1718676110.099,166.016,-27.344,-483.887,157.715,0.000
1718676110.103,122.559,-6.348,-282.227,146.484,0.000
1718676110.107,112.793,29.297,22.949,127.441,0.000
1718676110.111,145.508,12.695,-131.836,146.973,0.000
1718676110.115,182.129,0.977,-269.531,163.086,0.000
1718676110.119,182.617,25.391,-70.801,160.156,0.000
1718676110.123,151.855,37.109,33.203,160.156,0.000
1718676110.127,136.230,16.602,-162.109,153.809,0.000
1718676110.130,150.879,4.883,-280.273,151.855,0.000
1718676110.134,184.570,19.043,-137.695,167.969,0.000
1718676110.138,184.082,12.695,-26.855,172.852,0.000
1718676110.142,146.973,-15.625,-242.188,162.598,0.000
1718676110.146,111.816,-16.602,-306.152,148.438,0.000
1718676110.150,125.977,0.000,-203.613,141.113,0.000
1718676110.154,160.645,1.953,-154.785,154.785,0.000
1718676110.158,158.691,-16.602,-221.680,165.527,0.000
1718676110.162,124.512,-28.320,-310.059,144.531,0.000
1718676110.166,98.633,-17.578,-258.301,122.070,0.000
1718676110.171,118.164,-5.371,-204.590,129.395,0.000
1718676110.174,163.086,-31.250,-346.680,154.297,0.000
1718676110.178,163.574,-21.973,-196.289,158.691,0.000
1718676110.182,115.723,6.836,69.824,136.230,0.000
1718676110.186,83.008,-12.207,-35.156,123.047,0.000
1718676110.190,92.285,-42.480,-402.344,136.719,0.000
1718676110.194,125.000,-27.832,-338.379,149.414,0.000
1718676110.198,139.648,1.465,35.645,139.648,0.000
1718676110.202,119.141,-15.137,24.414,125.488,0.000
1718676110.206,87.891,-61.035,-387.695,123.047,0.000
1718676110.210,81.543,-31.738,-229.492,114.258,0.000
1718676110.214,109.375,-4.395,81.055,122.070,0.000
1718676110.219,126.953,-24.414,-30.762,137.695,0.000
1718676110.222,104.492,-28.809,-108.398,124.512,0.000
1718676110.226,56.641,-21.484,-3.418,103.027,0.000
1718676110.230,44.434,-31.250,-116.211,102.051,0.000
1718676110.234,87.402,-41.504,-278.809,117.188,0.000
1718676110.238,114.258,-42.480,-250.000,120.117,0.000
1718676110.242,84.961,-25.879,-98.633,104.004,0.000
1718676110.246,39.551,-19.043,32.715,86.914,0.000
1718676110.250,32.715,-36.133,-132.812,86.426,0.000
1718676110.254,70.312,-25.391,-148.438,90.332,0.000
1718676110.258,103.516,-19.043,-14.648,98.145,0.000
1718676110.262,77.148,-31.250,-156.250,104.980,0.000
1718676110.266,0.000,-43.457,-277.832,82.520,0.000
1718676110.270,0.000,-27.344,-104.980,66.406,0.000
1718676110.274,0.000,-9.766,59.082,69.336,0.000
1718676110.277,0.000,-25.879,52.734,88.867,0.000
1718676110.281,0.000,-57.617,-226.074,103.027,0.000
1718676110.285,0.000,-53.223,-316.895,77.637,0.000
1718676110.289,0.000,-26.855,-190.918,56.152,0.000
1718676110.293,0.000,-31.250,-250.488,70.312,0.000
1718676110.297,0.000,-41.992,-305.664,82.031,0.000
1718676110.301,0.000,-23.438,-38.086,66.895,0.000
1718676110.305,0.000,-14.160,96.680,48.828,0.000
1718676110.309,0.000,-41.504,-22.949,32.227,0.000
1718676110.313,12.695,-88.867,-406.738,40.527,0.000
1718676110.317,58.105,-42.969,-197.754,51.270,0.000
1718676110.321,46.387,-6.348,143.066,47.852,0.000
1718676110.324,2.441,-32.227,14.648,38.574,0.000
1718676110.328,-33.203,-42.969,-82.031,10.742,0.000
1718676110.332,-23.926,-60.547,-218.262,4.883,0.000
1718676110.336,24.414,-39.551,-109.375,14.160,0.000
1718676110.340,35.645,-38.574,-40.527,19.043,0.000
1718676110.344,0.000,-80.566,-331.543,20.996,0.000
1718676110.348,-35.645,-41.992,-147.949,1.465,0.000
1718676110.352,-20.508,-32.227,-62.500,7.324,0.000
1718676110.356,31.738,-55.176,-226.074,31.738,0.000
1718676110.360,0.000,-28.809,8.789,30.273,0.000
1718676110.364,0.000,-12.695,132.812,3.418,0.000
1718676110.368,0.000,-34.668,31.250,-14.648,0.000
1718676110.372,0.000,-56.641,-176.270,-1.465,0.000
1718676110.375,0.000,-40.039,-56.152,20.508,0.000
1718676110.379,0.000,-41.504,-60.547,35.156,0.000
1718676110.383,0.000,-54.199,-181.152,26.855,0.000
1718676110.387,0.000,-69.824,-272.949,-3.418,0.000
1718676110.391,0.000,-50.781,-47.852,-0.488,0.000
1718676110.395,0.000,-25.879,131.836,17.578,0.000
1718676110.399,0.000,-43.457,-6.836,26.367,0.000
1718676110.403,0.000,-66.406,-208.008,21.973,0.000
1718676110.407,-16.113,-39.551,0.000,-2.930,0.000
1718676110.411,-39.551,-28.320,0.000,-11.230,0.000
1718676110.415,-9.277,-56.152,0.000,8.301,0.000
1718676110.418,35.156,-63.477,0.000,35.156,0.000
1718676110.422,6.836,-34.668,0.000,21.973,0.000
1718676110.426,-39.551,-42.480,0.000,-13.672,0.000
1718676110.430,-37.598,-62.988,0.000,-19.531,0.000
1718676110.434,-3.418,-71.289,0.000,3.418,0.000
1718676110.438,18.066,-25.879,0.000,5.371,0.000
1718676110.442,-3.418,-10.254,0.000,-2.930,0.000
1718676110.446,-41.016,-45.410,0.000,-12.207,0.000
1718676110.450,-51.758,-45.898,0.000,-25.391,0.000
1718676110.454,-19.531,-16.113,40.039,-12.695,0.000
1718676110.457,23.926,-19.043,86.426,7.324,0.000
1718676110.461,7.812,-41.504,-86.914,-4.883,0.000
1718676110.465,-36.133,-31.738,-3.906,-7.324,0.000
1718676110.469,-51.758,-29.785,31.250,-13.672,0.000
1718676110.473,-28.809,-53.223,-199.707,-17.090,0.000
1718676110.477,9.277,-73.242,-429.688,2.930,0.000
1718676110.481,4.883,-41.016,-178.223,2.930,0.000
1718676110.485,-30.762,-13.184,123.535,-11.719,0.000
1718676110.489,-48.340,-37.109,-20.020,-15.625,0.000
1718676110.493,-31.738,-46.387,-99.609,0.977,0.000
1718676110.496,8.789,-25.879,19.043,13.672,0.000
1718676110.500,17.090,-17.090,87.402,3.418,0.000
1718676110.504,-25.879,-38.086,22.949,-11.230,0.000
1718676110.508,-60.059,-50.781,-112.793,-31.250,0.000
1718676110.512,-42.480,-33.691,6.836,-31.250,0.000
1718676110.516,3.418,-35.156,19.531,-10.254,0.000
1718676110.520,8.301,-49.805,-201.172,0.000,0.000
1718676110.524,-23.926,-48.340,-240.723,-6.348,0.000
1718676110.528,-51.758,-33.203,-92.285,-21.484,0.000
1718676110.532,-35.645,-21.484,23.438,-28.320,0.000
1718676110.535,4.883,-36.133,-110.840,-6.836,0.000
1718676110.539,11.719,-50.293,-266.602,4.883,0.000
1718676110.543,-16.602,-25.391,-123.535,-12.207,0.000
1718676110.548,-51.758,-22.461,-55.664,-35.645,0.000
1718676110.551,-51.758,-49.805,-66.895,-27.832,0.000
1718676110.555,-12.207,-40.039,84.473,-17.578,0.000
1718676110.559,5.371,-15.625,97.168,-22.461,0.000
1718676110.563,-20.020,-26.855,-99.121,-23.926,0.000
1718676110.567,-50.781,-65.430,-278.320,-27.344,0.000
1718676110.571,-50.293,-46.387,-185.059,-25.879,0.000
1718676110.575,-13.672,-20.020,66.406,-16.113,0.000
1718676110.579,9.766,-39.551,-54.199,-7.812,0.000
1718676110.583,-18.555,-64.453,-208.496,-8.789,0.000
1718676110.587,-61.035,-34.180,-187.012,-21.973,0.000
1718676110.591,-56.152,-18.555,-200.684,-36.133,0.000
1718676110.596,0.000,-36.621,0.000,-26.367,0.000
1718676110.599,0.000,-35.156,0.000,-8.301,0.000
1718676110.603,0.000,-25.391,0.000,-17.090,0.000
1718676110.607,0.000,-24.902,0.000,-36.621,0.000
1718676110.611,0.000,-39.551,0.000,-45.410,0.000
1718676110.615,0.000,-55.176,0.000,-37.598,0.000
1718676110.619,0.000,-39.551,0.000,-29.785,0.000
1718676110.623,0.000,-20.508,0.000,-39.062,0.000
1718676110.627,0.000,-46.387,0.000,-59.082,0.000
1718676110.631,0.000,-53.223,0.000,-67.383,0.000
1718676110.635,0.000,-46.875,0.000,-67.383,0.000
1718676110.639,0.000,-48.828,0.000,-63.965,0.000
1718676110.642,-16.113,-47.363,-174.805,-48.828,0.000
1718676110.646,4.395,-39.062,-42.969,-57.617,0.000
1718676110.650,-13.184,-29.297,65.430,-67.383,0.000
1718676110.654,-53.711,-33.203,74.707,-52.734,0.000
1718676110.657,-59.570,-57.129,-187.500,-30.273,0.000
1718676110.661,-28.320,-52.734,-227.539,-26.367,0.000
1718676110.665,-2.930,-26.855,61.035,-33.691,0.000
1718676110.669,-7.324,-33.691,30.762,-44.922,0.000
1718676110.673,-45.898,-53.223,-224.121,-31.250,0.000
1718676110.677,-73.730,-28.320,-30.273,-16.602,0.000
1718676110.681,-46.387,-15.625,159.668,-31.250,0.000
1718676110.685,-13.184,-40.527,60.059,-37.598,0.000
1718676110.689,-52.734,-91.797,-384.766,-35.645,0.000
1718676110.693,-42.969,-58.105,-232.422,-33.203,0.000
1718676110.697,-27.832,-9.277,138.672,-36.133,0.000
1718676110.701,-14.160,-20.508,54.199,-42.969,0.000
1718676110.704,-29.785,-23.438,54.199,-48.340,0.000
1718676110.708,-61.035,-38.086,-85.938,-51.758,0.000
1718676110.712,-53.223,-29.785,-131.836,-48.828,0.000
1718676110.716,-8.789,-37.109,-89.844,-32.715,0.000
1718676110.720,15.137,-61.035,-267.578,-18.555,0.000
1718676110.724,-14.160,-16.602,53.223,-34.668,0.000
1718676110.728,-56.152,-21.973,76.660,-48.340,0.000
1718676110.732,-54.199,-48.340,-177.734,-48.340,0.000
1718676110.736,0.000,-28.809,20.020,-29.785,0.000
1718676110.740,0.000,-6.348,145.996,-23.438,0.000
1718676110.744,0.000,-13.672,94.727,-32.227,0.000
1718676110.747,0.000,-55.664,-145.508,-45.410,0.000
1718676110.751,0.000,-41.504,-66.895,-53.711,0.000
1718676110.755,0.000,-23.438,38.574,-37.598,0.000
1718676110.759,0.000,-33.691,-37.109,-21.484,0.000
1718676110.763,0.000,-42.969,-159.668,-22.461,0.000
1718676110.767,0.000,-27.832,-12.695,-35.156,0.000
1718676110.771,0.000,-12.207,137.695,-48.828,0.000
1718676110.775,0.000,-28.320,4.395,-39.551,0.000
1718676110.779,0.000,-62.012,-271.973,-9.766,0.000
1718676110.781,-12.207,-23.926,-15.625,-22.949,0.000
1718676110.785,4.395,-8.789,150.391,-55.664,0.000
1718676110.789,-10.254,-41.504,-15.137,-60.547,0.000
1718676110.793,-43.457,-37.598,-51.758,-61.523,0.000
1718676110.797,-61.523,-18.066,68.359,-40.039,0.000
1718676110.801,-26.855,-27.832,56.152,-33.203,0.000
1718676110.804,9.766,-49.316,-113.770,-43.945,0.000
1718676110.808,-8.301,-74.707,-319.824,-41.504,0.000
1718676110.812,-52.246,-37.598,-19.043,-53.223,0.000
1718676110.816,-47.852,-18.066,164.062,-46.875,0.000
1718676110.820,-12.207,-44.922,-58.105,-30.762,0.000
1718676110.824,10.254,-44.922,-147.949,-40.039,0.000
1718676110.828,-56.152,-19.531,43.945,-58.594,0.000
1718676110.832,-37.109,-17.090,82.520,-37.598,0.000
1718676110.836,-2.930,-36.133,-104.492,-3.418,0.000
1718676110.840,2.441,-33.203,-43.457,-16.602,0.000
1718676110.843,-27.832,-27.832,124.512,-45.410,0.000
1718676110.847,-52.734,-53.223,-77.148,-59.082,0.000
1718676110.851,-41.016,-85.449,-436.035,-40.039,0.000
1718676110.855,0.488,-40.527,-180.664,-13.184,0.000
1718676110.859,4.395,-4.883,153.809,-21.973,0.000
1718676110.863,-18.066,-38.086,-63.965,-25.879,0.000
1718676110.867,-46.875,-39.062,-106.934,-37.109,0.000
1718676110.871,-43.457,-21.484,67.871,-35.156,0.000
1718676110.875,-9.277,-19.043,108.887,-21.973,0.000
1718676110.879,1.465,-23.926,32.715,-20.996,0.000
1718676110.882,-15.137,-25.391,-24.902,-18.066,0.000
1718676110.886,-48.828,-20.508,64.941,-40.039,0.000
1718676110.890,-46.387,-22.949,52.734,-43.457,0.000
1718676110.894,-2.930,-45.410,-195.801,-19.531,0.000
1718676110.898,12.207,-37.109,-136.230,-4.883,0.000
1718676110.902,-23.926,-8.789,136.230,-11.230,0.000
1718676110.906,-65.430,-19.531,104.980,-37.109,0.000
1718676110.910,-52.734,-43.457,-96.680,-28.320,0.000
1718676110.914,-12.695,-49.316,-208.008,-12.207,0.000
1718676110.918,2.930,-34.180,-113.281,-15.625,0.000
1718676110.922,0.000,-33.691,-35.156,-16.602,0.000
1718676110.926,0.000,-45.898,-128.906,-23.926,0.000
1718676110.930,0.000,-27.344,-80.078,-25.879,0.000
1718676110.934,0.000,-10.742,99.609,-20.996,0.000
1718676110.938,0.000,-17.578,117.188,-2.441,0.000
1718676110.941,0.000,-44.922,-125.488,6.348,0.000
1718676110.945,0.000,-36.621,-78.613,-21.484,0.000
1718676110.949,0.000,-13.672,116.211,-36.621,0.000
1718676110.953,0.000,-28.320,12.695,-27.832,0.000
1718676110.957,0.000,-67.383,-274.414,-5.859,0.000
1718676110.961,0.000,-34.668,-11.719,-4.395,0.000
1718676110.965,0.000,-13.184,186.523,-31.250,0.000
1718676110.969,-68.848,-35.645,-1.953,-50.781,0.000
1718676110.973,-41.016,-40.527,-87.402,-45.898,0.000
1718676110.977,-2.930,-34.180,-19.531,-29.785,0.000
1718676110.981,-8.301,-17.578,109.375,-28.809,0.000
1718676110.985,-42.480,-26.367,73.242,-42.969,0.000
1718676110.989,-58.105,-49.805,-193.848,-40.527,0.000
1718676110.993,-42.480,-33.203,-180.664,-31.250,0.000
1718676110.996,-3.418,-11.719,87.891,-39.551,0.000
1718676111.000,10.254,-27.832,-5.859,-26.855,0.000
1718676111.004,-27.344,-20.020,-28.809,-31.250,0.000
1718676111.008,-60.547,-22.461,38.574,-44.922,0.000
1718676111.012,-39.551,-41.992,-188.965,-30.762,0.000
1718676111.016,1.953,-47.852,-300.781,-14.648,0.000
1718676111.020,0.000,-33.691,-100.098,-10.742,0.000
1718676111.024,-41.016,-6.348,153.320,-23.926,0.000
1718676111.028,-75.684,-25.391,105.957,-34.180,0.000
1718676111.032,-57.617,-51.270,-118.652,-19.531,0.000
1718676111.036,-13.672,-47.852,-244.629,-7.324,0.000
1718676111.040,-3.906,-34.668,-132.812,-20.508,0.000
1718676111.044,-20.508,-23.438,87.891,-23.438,0.000
1718676111.047,-48.828,-62.988,-246.582,-36.133,0.000
1718676111.051,-49.316,-43.457,-168.945,-53.711,0.000
1718676111.055,-12.695,5.859,185.059,-38.574,0.000
1718676111.059,9.277,-13.184,57.129,-17.090,0.000
1718676111.063,-15.137,-34.180,-12.207,-18.555,0.000
1718676111.067,-49.805,-32.227,73.730,-35.156,0.000
1718676111.071,-50.293,-21.973,97.168,-37.598,0.000
1718676111.075,-28.809,-24.902,29.785,-27.344,0.000
1718676111.079,0.977,-25.391,-13.184,-11.719,0.000
1718676111.083,-11.719,-38.086,-21.484,-17.578,0.000
1718676111.087,-58.594,-39.062,-11.230,-35.645,0.000
1718676111.091,-54.688,-36.133,-74.219,-25.879,0.000
1718676111.094,-12.695,-38.574,-120.605,-3.418,0.000
1718676111.098,15.625,-9.766,126.953,-6.348,0.000
1718676111.102,1.465,-13.672,111.816,-16.113,0.000
1718676111.106,-49.805,-42.480,-82.031,-23.438,0.000
1718676111.110,0.000,-30.273,-19.043,-24.902,0.000
1718676111.114,0.000,-9.277,92.285,-14.160,0.000
1718676111.118,0.000,-17.090,86.426,-8.789,0.000
1718676111.122,0.000,-43.945,-54.199,-11.719,0.000
1718676111.126,0.000,-37.598,-0.488,-26.855,0.000
1718676111.130,0.000,-35.156,-35.645,-38.086,0.000
1718676111.134,0.000,-44.434,-169.922,-20.996,0.000
1718676111.138,0.000,-55.664,-269.043,4.883,0.000
1718676111.141,0.000,-25.879,-64.941,0.488,0.000
1718676111.145,0.000,0.977,160.645,-27.832,0.000
1718676111.149,0.000,-33.691,-40.527,-37.598,0.000
1718676111.153,0.000,-37.109,-57.617,-33.203,0.000
1718676111.157,-1.465,-6.836,123.047,-23.438,0.000
1718676111.161,1.465,-3.906,171.387,-16.113,0.000
1718676111.165,-37.109,-22.949,59.082,-30.762,0.000
1718676111.169,-67.871,-27.344,-46.875,-46.387,0.000
1718676111.173,-57.129,-24.902,18.066,-34.668,0.000
1718676111.177,-12.207,-28.809,5.859,-30.273,0.000
1718676111.181,-6.348,-40.039,-68.848,-31.738,0.000
1718676111.184,-43.945,-59.570,-251.953,-26.855,0.000
1718676111.188,-74.707,-17.090,26.855,-45.410,0.000
1718676111.192,-59.570,-4.395,176.758,-47.852,0.000
1718676111.196,-3.418,-38.086,-85.938,-24.414,0.000
1718676111.200,3.906,-30.273,-89.355,-18.066,0.000
1718676111.204,-41.016,-16.602,105.957,-35.156,0.000
1718676111.208,-71.777,-35.156,23.926,-50.293,0.000
1718676111.212,-53.711,-42.480,-96.191,-47.363,0.000
1718676111.216,-10.254,-27.832,20.508,-26.855,0.000
1718676111.220,7.324,-20.020,125.000,-16.602,0.000
1718676111.223,-11.719,-37.598,-33.691,-20.020,0.000
1718676111.227,-53.223,-62.012,-257.812,-30.762,0.000
1718676111.231,-53.711,-39.062,-45.410,-38.574,0.000
1718676111.235,-13.672,-16.113,145.996,-26.855,0.000
1718676111.239,13.184,-31.250,38.086,-15.137,0.000
1718676111.243,5.859,-60.547,-267.578,-10.254,0.000
1718676111.247,-36.621,-27.344,-59.570,-28.809,0.000
1718676111.251,-52.734,-11.230,133.301,-38.086,0.000
1718676111.255,-17.090,-32.715,-18.555,-24.414,0.000
1718676111.258,-0.488,-29.297,-63.965,-23.926,0.000
1718676111.262,-27.832,-27.344,-14.648,-33.691,0.000
1718676111.266,-58.594,-20.996,26.367,-46.387,0.000
1718676111.270,-59.570,-38.086,-168.945,-47.363,0.000
1718676111.274,-29.785,-58.594,-315.430,-31.250,0.000
1718676111.278,-1.465,-17.090,-30.762,-32.227,0.000
1718676111.282,-25.391,-9.766,113.770,-39.551,0.000
1718676111.286,-66.406,-31.250,-19.043,-41.016,0.000
1718676111.290,-72.266,-37.109,-144.043,-46.875,0.000
1718676111.294,-41.992,-29.785,-183.594,-50.293,0.000
1718676111.298,-6.836,-17.090,-12.207,-42.969,0.000
1718676111.302,-6.348,-20.020,-14.648,-41.992,0.000
1718676111.306,-63.477,-22.949,-10.254,-68.848,0.000
1718676111.310,-108.887,-6.348,102.539,-82.031,0.000
1718676111.314,-74.707,-8.301,32.715,-70.312,0.000
1718676111.317,-36.133,-47.363,-279.297,-62.500,0.000
1718676111.321,-59.570,-32.227,-233.887,-85.938,0.000
1718676111.325,-119.629,0.000,24.414,-125.977,0.000
1718676111.329,-162.109,-16.113,31.738,-152.832,0.000
1718676111.333,-162.109,-45.898,-238.770,-164.551,0.000
1718676111.337,-157.715,-8.789,-54.688,-189.941,0.000
1718676111.341,-192.871,-1.465,142.578,-238.281,0.000
1718676111.345,0.000,-32.227,-2.930,-291.992,0.000
1718676111.349,0.000,-39.551,-153.320,-333.008,0.000
1718676111.353,0.000,-12.207,-36.621,-347.656,0.000
1718676111.357,0.000,-8.301,61.523,-341.309,0.000
1718676111.361,0.000,-17.578,1.465,-338.867,0.000
1718676111.365,0.000,-26.367,-206.055,-354.492,0.000
1718676111.369,0.000,-13.672,-237.305,-370.117,0.000
1718676111.372,0.000,10.742,38.086,-363.770,0.000
1718676111.376,0.000,-7.324,-104.004,-352.539,0.000
1718676111.380,0.000,-20.020,-309.082,-328.125,0.000
1718676111.384,0.000,26.367,42.480,-327.637,0.000
1718676111.388,0.000,34.668,47.363,-323.730,0.000
1718676111.391,-265.137,20.020,-65.430,-311.035,0.000
1718676111.395,-334.961,43.945,89.844,-303.711,0.000
1718676111.398,-344.238,63.965,184.082,-289.551,0.000
1718676111.402,-310.059,55.176,155.273,-294.922,0.000
1718676111.406,-303.223,34.180,30.273,-293.945,0.000
1718676111.410,-341.797,31.250,-21.973,-280.273,0.000
1718676111.414,-373.535,50.781,105.957,-256.348,0.000
1718676111.418,-356.445,52.734,163.086,-234.863,0.000
1718676111.422,-315.918,3.418,-102.051,-227.539,0.000
1718676111.426,-295.898,20.020,67.383,-255.859,0.000
1718676111.430,-318.359,50.781,231.934,-256.348,0.000
1718676111.434,-335.938,28.809,82.031,-219.727,0.000
1718676111.437,-312.988,35.156,136.719,-196.777,0.000
1718676111.441,-264.160,60.547,226.562,-177.246,0.000
1718676111.445,-239.258,54.688,190.918,-176.270,0.000
1718676111.448,-256.348,35.645,122.559,-175.293,0.000
1718676111.452,-279.785,22.949,109.375,-165.039,0.000
1718676111.456,-272.949,14.648,91.309,-151.855,0.000
1718676111.460,-225.098,22.461,151.367,-137.207,0.000
1718676111.464,-179.199,8.789,116.699,-142.578,0.000
1718676111.468,-198.730,-1.953,58.105,-149.902,0.000
1718676111.472,-251.465,15.625,170.898,-140.625,0.000
1718676111.476,-251.953,10.742,181.152,-119.629,0.000
1718676111.480,-193.848,-17.578,3.906,-104.980,0.000
1718676111.484,-104.980,-13.184,-61.035,-92.773,0.000
1718676111.488,-120.605,19.043,127.441,-109.863,0.000
1718676111.492,-82.031,10.254,68.359,-108.398,0.000
1718676111.495,-22.461,7.324,43.945,-66.406,0.000
1718676111.499,-16.602,25.879,164.551,-55.664,0.000
1718676111.503,-38.574,19.043,109.375,-48.828,0.000
1718676111.507,-56.641,5.859,37.598,-37.598,0.000
1718676111.511,-22.461,-15.137,-138.184,-10.742,0.000
1718676111.515,41.504,10.254,-34.180,22.949,0.000
1718676111.519,64.941,46.875,211.426,37.598,0.000
1718676111.523,44.434,27.832,138.184,37.109,0.000
1718676111.527,16.113,3.418,46.387,27.344,0.000
1718676111.531,0.000,13.672,113.281,49.316,0.000
1718676111.535,0.000,15.625,137.695,75.684,0.000
1718676111.538,0.000,0.000,72.754,69.336,0.000
1718676111.542,0.000,3.418,52.246,69.336,0.000
1718676111.546,0.000,7.812,50.293,75.195,0.000
1718676111.550,0.000,-8.789,-104.492,76.172,0.000
1718676111.554,0.000,-30.273,-266.602,96.191,0.000
1718676111.558,0.000,-49.316,-319.824,120.117,0.000
1718676111.562,0.000,-7.324,51.758,110.840,0.000
1718676111.566,0.000,0.977,163.086,103.027,0.000
1718676111.570,0.000,-35.645,-102.539,107.422,0.000
1718676111.574,0.000,-40.527,-213.379,102.051,0.000
1718676111.578,139.160,-16.602,27.832,115.723,0.000
1718676111.581,113.770,-15.137,92.285,120.605,0.000
1718676111.585,79.590,-38.574,-132.324,111.328,0.000
1718676111.589,76.660,-32.715,-57.129,114.258,0.000
1718676111.593,110.352,-23.438,70.801,126.953,0.000
1718676111.597,143.066,-40.039,-112.305,145.020,0.000
1718676111.601,125.488,-69.336,-378.418,145.996,0.000
1718676111.605,88.379,-61.035,-286.621,122.559,0.000
1718676111.609,79.102,-22.461,35.645,105.469,0.000
1718676111.613,99.609,-20.996,42.480,116.699,0.000
1718676111.617,128.906,-31.250,-85.938,140.137,0.000
1718676111.621,126.465,-21.973,31.738,137.695,0.000
1718676111.626,86.914,-21.484,12.695,94.727,0.000
1718676111.630,67.383,-36.133,-51.758,114.746,0.000
1718676111.634,104.004,-43.457,-29.297,111.328,0.000
1718676111.638,138.672,-30.273,109.863,89.355,0.000
1718676111.642,119.141,-26.855,52.246,83.984,0.000
1718676111.646,87.891,-52.734,-324.219,87.891,0.000
1718676111.650,74.219,-70.312,-225.586,92.285,0.000
1718676111.654,96.191,-31.250,138.672,99.609,0.000
1718676111.657,131.836,-16.602,77.148,88.379,0.000
1718676111.661,124.512,-40.039,-221.191,68.848,0.000
1718676111.665,84.473,-58.105,-54.688,64.941,0.000
1718676111.669,60.547,-47.852,166.992,76.660,0.000
1718676111.673,75.195,-30.762,0.000,0.000,0.000
1718676111.677,117.676,-42.480,0.000,0.000,0.000
1718676111.681,125.488,-38.574,0.000,0.000,0.000
1718676111.685,86.426,-20.508,0.000,0.000,0.000
1718676111.689,47.363,-31.250,0.000,0.000,0.000
1718676111.693,67.383,-68.848,0.000,0.000,0.000
1718676111.697,100.586,-57.129,0.000,0.000,0.000
1718676111.701,95.215,-22.461,0.000,0.000,0.000
1718676111.705,67.871,-29.297,0.000,0.000,0.000
1718676111.709,38.086,-58.105,0.000,0.000,0.000
1718676111.712,38.574,-33.691,0.000,0.000,0.000
1718676111.716,68.359,-10.254,0.000,0.000,0.000
1718676111.721,0.000,-32.227,16.113,88.867,0.000
1718676111.724,0.000,-47.852,-80.566,84.473,0.000
1718676111.728,0.000,-27.832,57.129,59.570,0.000
1718676111.732,0.000,-20.508,115.723,52.734,0.000
1718676111.736,0.000,-41.992,-4.395,70.312,0.000
1718676111.740,0.000,-83.984,-352.539,82.520,0.000
1718676111.744,0.000,-39.062,-89.844,60.059,0.000
1718676111.748,0.000,-0.977,159.180,40.527,0.000
1718676111.752,0.000,-34.180,-69.336,46.875,0.000
1718676111.756,0.000,-37.598,-99.609,54.199,0.000
1718676111.760,0.000,-24.902,55.664,55.664,0.000
1718676111.764,0.000,-41.504,19.531,56.152,0.000
1718676111.768,17.090,-50.293,-78.613,43.945,0.000
1718676111.772,-1.465,-35.156,3.418,37.598,0.000
1718676111.775,25.879,-33.691,96.191,34.668,0.000
1718676111.779,47.363,-44.434,-8.789,47.363,0.000
1718676111.783,30.762,-43.457,-108.887,47.363,0.000
1718676111.787,-9.277,-50.293,-152.344,26.367,0.000
1718676111.791,-31.738,-43.457,-91.309,19.531,0.000
1718676111.795,-2.441,-29.297,65.918,24.414,0.000
1718676111.799,43.945,-68.848,-227.051,46.387,0.000
1718676111.803,22.461,-47.852,-101.562,37.598,0.000
1718676111.807,-27.832,-20.508,166.992,9.277,0.000
1718676111.811,-37.109,-50.293,-15.137,10.742,0.000
1718676111.815,-8.789,-56.641,0.000,15.625,0.000
1718676111.819,28.320,-36.133,0.000,17.090,0.000
1718676111.822,21.973,-35.156,0.000,20.508,0.000
1718676111.826,-15.137,-52.734,0.000,5.371,0.000
1718676111.830,-33.203,-60.547,0.000,-4.395,0.000
1718676111.834,-16.602,-63.477,0.000,-1.465,0.000
1718676111.838,22.949,-48.340,0.000,12.207,0.000
1718676111.842,27.344,-52.734,0.000,22.949,0.000
1718676111.846,-3.906,-72.266,0.000,11.230,0.000
1718676111.850,-28.809,-29.297,0.000,-13.184,0.000
1718676111.854,-27.832,-27.832,0.000,-13.184,0.000
1718676111.858,9.766,-53.711,0.000,7.324,0.000
1718676111.862,20.996,-32.715,55.664,9.277,0.000
1718676111.865,-20.996,-13.184,147.949,-16.602,0.000
1718676111.869,-49.805,-27.344,60.059,-24.414,0.000
1718676111.873,-27.344,-49.805,-91.309,-16.113,0.000
1718676111.877,8.301,-35.645,10.742,-5.859,0.000
1718676111.881,17.090,-35.156,28.320,3.906,0.000
1718676111.885,-13.184,-42.480,-56.152,-7.812,0.000
1718676111.889,-47.852,-63.965,-267.578,-9.766,0.000
1718676111.893,-37.598,-54.199,-225.098,-9.766,0.000
1718676111.897,1.953,-21.973,43.457,-5.859,0.000
1718676111.901,11.230,-28.809,90.332,6.836,0.000
1718676111.905,-16.602,-39.551,53.223,1.953,0.000
1718676111.908,0.000,-36.621,61.035,-8.789,0.000
1718676111.912,0.000,-36.621,65.918,-7.324,0.000
1718676111.916,0.000,-33.203,34.180,-2.441,0.000
1718676111.920,0.000,-23.438,6.348,0.977,0.000
1718676111.924,0.000,-15.625,125.977,-8.301,0.000
1718676111.928,0.000,-39.062,-17.090,-19.043,0.000
1718676111.932,0.000,-49.805,-243.652,-18.066,0.000
1718676111.936,0.000,-29.297,-91.309,-20.020,0.000
1718676111.940,0.000,-13.184,133.301,9.277,0.000
1718676111.944,0.000,-18.066,126.953,26.367,0.000
1718676111.947,0.000,-40.039,-32.715,-14.648,0.000
1718676111.951,0.000,-47.363,-192.383,-45.410,0.000
1718676111.954,-43.945,-25.391,-147.461,-30.273,0.000
1718676111.957,-45.410,-3.418,77.637,-5.371,0.000
1718676111.961,-8.301,-27.344,-26.855,2.441,0.000
1718676111.965,28.320,-18.066,-22.949,-1.953,0.000
1718676111.969,-2.441,4.395,129.883,-6.348,0.000
1718676111.973,-47.363,-18.555,-71.777,12.207,0.000
1718676111.977,-44.922,-44.922,-354.492,44.922,0.000
1718676111.981,-0.488,-17.578,-130.371,41.992,0.000
1718676111.985,44.922,13.672,155.762,11.230,0.000
1718676111.989,20.996,-7.812,56.641,-7.324,0.000
1718676111.993,-41.016,-27.344,-46.387,5.371,0.000
1718676111.997,-56.152,-11.719,77.637,29.297,0.000
1718676111.999,-12.207,-5.859,166.016,28.320,0.000
1718676112.003,26.367,-18.555,36.133,13.184,0.000
1718676112.007,15.137,-35.645,-166.504,0.977,0.000
1718676112.010,-7.324,-19.531,-24.414,5.371,0.000
1718676112.014,-9.766,-7.812,91.797,19.531,0.000
1718676112.018,19.043,-42.480,-201.172,22.461,0.000
1718676112.022,52.246,-66.895,-387.695,7.324,0.000
1718676112.026,39.062,-18.066,1.465,-25.879,0.000
1718676112.030,-9.277,-4.883,93.750,-25.879,0.000
1718676112.034,-26.855,-20.020,-30.762,4.395,0.000
1718676112.038,7.812,-22.949,40.527,7.324,0.000
1718676112.042,55.664,-28.809,11.230,-6.836,0.000
1718676112.046,-34.668,-19.531,0.000,-20.508,0.000
1718676112.050,-18.555,-31.250,0.000,-23.438,0.000
1718676112.054,23.926,-22.949,0.000,-18.066,0.000
1718676112.058,28.809,-10.254,0.000,-14.160,0.000
1718676112.062,-5.859,-30.762,0.000,-22.461,0.000
1718676112.066,-48.828,-62.012,0.000,-28.320,0.000
1718676112.070,-42.969,-51.758,0.000,-19.531,0.000
1718676112.073,-1.953,-15.137,0.000,-10.742,0.000
1718676112.077,15.625,-15.137,0.000,-4.883,0.000
1718676112.081,-6.348,-62.500,0.000,-3.906,0.000
1718676112.085,-44.434,-38.086,0.000,-28.809,0.000
1718676112.089,-44.434,-7.324,0.000,-36.621,0.000
1718676112.093,0.000,-25.391,-11.230,-14.648,0.000
1718676112.097,12.695,-30.273,-65.430,-11.230,0.000
1718676112.101,-10.742,-19.531,58.594,-24.414,0.000
1718676112.105,-44.434,-20.996,77.637,-36.621,0.000
1718676112.109,-51.758,-34.180,-67.383,-32.227,0.000
1718676112.113,-18.066,-42.480,-264.648,-30.273,0.000
1718676112.117,7.812,-29.785,-144.043,-23.926,0.000
1718676112.121,-1.953,-21.484,-51.270,-20.020,0.000
1718676112.125,-35.156,-50.781,-266.113,-37.109,0.000
1718676112.129,-52.246,-68.848,-423.828,-35.156,0.000
1718676112.132,-23.926,-20.996,-46.387,-27.344,0.000
1718676112.136,15.625,-22.949,-38.086,-17.578,0.000
1718676112.141,9.766,-35.156,-207.520,-14.648,0.000
1718676112.145,-32.227,-18.066,32.227,-34.180,0.000
1718676112.148,-42.480,-16.113,92.773,-41.016,0.000
1718676112.152,-13.672,-23.926,-3.418,-24.902,0.000
1718676112.156,23.438,-45.410,-207.520,-7.324,0.000
1718676112.160,11.719,-48.340,-247.070,-6.348,0.000
1718676112.164,-33.203,-31.738,-146.484,-20.996,0.000
1718676112.168,-59.082,-31.738,-52.734,-39.062,0.000
1718676112.172,-37.598,-54.199,-298.340,-41.504,0.000
1718676112.176,10.254,-32.715,-137.695,-14.160,0.000
1718676112.180,22.949,-19.043,30.273,-11.230,0.000
1718676112.184,-18.555,-25.879,-56.641,-37.109,0.000
1718676112.188,-66.406,-45.410,-194.824,-36.621,0.000
1718676112.192,-54.199,-25.391,-59.082,-25.391,0.000
1718676112.195,-6.348,-8.789,93.750,-12.207,0.000
1718676112.199,7.812,-26.367,-17.090,-10.254,0.000
1718676112.203,-24.902,-38.574,-95.703,-22.461,0.000
1718676112.207,-59.082,-42.480,-206.543,-33.691,0.000
1718676112.211,-41.504,-24.414,-175.293,-30.273,0.000
1718676112.215,-9.277,-28.809,-210.938,-16.113,0.000
1718676112.219,1.953,-67.871,-424.805,-3.418,0.000
1718676112.223,-27.832,-22.461,-8.301,-16.602,0.000
1718676112.227,-66.895,-10.742,70.801,-32.227,0.000
1718676112.231,-46.387,-39.062,-235.840,-22.949,0.000
1718676112.235,0.000,-26.855,-110.840,-9.277,0.000
1718676112.239,0.000,-13.672,40.527,-13.184,0.000
1718676112.242,0.000,-11.230,74.707,-14.160,0.000
1718676112.246,0.000,-35.645,-113.770,-24.414,0.000
1718676112.250,0.000,-33.203,-91.797,-38.574,0.000
1718676112.254,0.000,-31.738,-99.609,-20.508,0.000
1718676112.258,0.000,-41.016,-229.980,-6.836,0.000
1718676112.262,0.000,-63.965,-375.000,-15.625,0.000
1718676112.266,0.000,-40.039,-185.547,-29.297,0.000
1718676112.270,0.000,-11.230,93.750,-35.645,0.000
1718676112.274,0.000,-30.273,-9.766,-20.508,0.000
1718676112.278,0.000,-36.133,-85.938,-10.254,0.000
1718676112.280,-0.488,-18.555,43.945,-23.438,0.000
1718676112.284,11.230,-15.625,98.633,-40.527,0.000
1718676112.288,-20.996,-36.621,-74.707,-48.340,0.000
1718676112.292,-54.688,-37.598,-230.957,-36.621,0.000
1718676112.296,-52.734,-14.648,0.488,-19.043,0.000
1718676112.300,-20.996,-18.555,12.695,-16.602,0.000
1718676112.303,8.789,-42.969,-253.418,-42.969,0.000
1718676112.307,-12.207,-66.406,-421.387,-43.945,0.000
1718676112.311,-59.082,-21.484,-82.520,-31.738,0.000
1718676112.315,-61.523,-9.277,110.352,-32.715,0.000
1718676112.319,-8.789,-41.992,-59.570,-22.949,0.000
1718676112.323,13.672,-33.203,-26.855,-21.973,0.000
1718676112.327,-65.430,-20.020,32.715,-32.715,0.000
1718676112.331,-38.086,-24.902,-53.223,-29.297,0.000
1718676112.335,6.836,-30.273,-71.289,-6.348,0.000
1718676112.339,1.953,-21.973,53.223,4.395,0.000
1718676112.343,-37.598,-19.531,119.141,-11.230,0.000
1718676112.346,-72.754,-43.945,-94.727,-13.672,0.000
1718676112.350,-57.617,-71.289,-411.621,-0.977,0.000
1718676112.354,-14.648,-41.504,-181.152,1.465,0.000
1718676112.358,-21.973,0.000,164.551,1.953,0.000
1718676112.362,-52.734,-21.973,65.430,-7.812,0.000
1718676112.366,-75.195,-46.387,-106.445,-28.809,0.000
1718676112.370,-58.105,-31.250,21.973,-24.414,0.000
1718676112.374,-14.160,-19.531,127.441,-10.254,0.000
1718676112.378,-7.324,-27.344,38.086,-3.906,0.000
1718676112.382,-48.340,-38.574,-23.926,-12.695,0.000
1718676112.385,-83.984,-28.809,58.594,-35.156,0.000
1718676112.389,-71.777,-29.297,40.039,-33.691,0.000
1718676112.393,-30.273,-52.734,-196.777,-9.277,0.000
1718676112.397,-8.301,-44.922,-138.184,-3.906,0.000
1718676112.401,-22.949,-20.508,118.652,-18.066,0.000
1718676112.405,-70.312,-36.133,38.574,-36.133,0.000
1718676112.409,-78.125,-51.758,-157.715,-49.316,0.000
1718676112.413,-26.367,-49.316,-241.211,-26.367,0.000
1718676112.417,0.000,-33.691,-114.746,1.953,0.000
1718676112.421,0.000,-13.672,118.164,-32.715,0.000
1718676112.425,0.000,-41.504,-55.664,-53.223,0.000
1718676112.429,0.000,-42.480,-104.980,-40.039,0.000
1718676112.433,0.000,-6.836,102.051,-43.945,0.000
1718676112.437,0.000,-9.277,121.582,-34.668,0.000
1718676112.441,0.000,-38.086,-130.859,-19.043,0.000
1718676112.445,0.000,-37.598,-174.805,-29.297,0.000
1718676112.448,0.000,-13.672,115.723,-48.340,0.000
